Temperature as a function of time and angular position 

Angular position
   theta1_[rad]   ..........   theta59_[rad]
              0.00000    2.30770    4.61537    6.92308    9.23076   11.53846   13.84615   16.15385   18.46154   20.76922   23.07693   25.38459   27.69235   29.99999   32.30761   34.61535   36.92316   39.23071   41.53852   43.84614   46.15391   48.46158   50.76920   53.07696   55.38465   57.69245   59.99996   62.30765   64.61545   66.92302   69.23081   71.53845   73.84626   76.15380   78.46165   80.76921   83.07696   85.38453   87.69242   90.00000   91.80880   93.61377   95.41182   97.19925   98.97270  100.72877  102.46490  104.17809  105.86579  107.52549  109.15559  110.75410  112.31952  113.85041  115.34617  116.80583  118.22886  119.61477  120.96376

Time and temperatures for the above positions
  time_[s]   T(theta1)_[K]      ..........  T(theta59)_[K]
   0.00000  302.85000  302.85000  302.85000  302.85000  302.85000  302.85000  302.85000  302.85000  302.85000  302.85000  302.85000  302.85000  302.85000  302.85000  302.85000  302.85000  302.85000  302.85000  302.85000  302.85000  302.85000  302.85000  302.85000  302.85000  302.85000  302.85000  302.85000  302.85000  302.85000  302.85000  302.85000  302.85000  302.85000  302.85000  302.85000  302.85000  302.85000  302.85000  302.85000  302.85000  302.85000  302.85000  302.85000  302.85000  302.85000  302.85000  302.85000  302.85000  302.85000  302.85000  302.85000  302.85000  302.85000  302.85000  302.85000  302.85000  302.85000  302.85000  302.85000
   0.10000  544.31808  539.57029  532.47522  522.90954  507.92090  493.66998  496.87270  510.40841  520.49585  525.29210  525.24140  524.62942  522.56024  520.33851  518.32474  516.21074  514.34849  512.61305  510.62833  508.81720  506.13317  503.75512  501.43522  498.34242  495.67749  493.19251  490.55989  487.44318  485.00705  483.03798  480.92465  479.05926  477.25818  475.10018  472.79034  471.05711  469.84418  468.26043  466.11966  464.86521  464.79771  464.01107  463.25786  462.58962  462.30038  462.13344  462.32263  462.78555  463.34890  464.07233  464.94230  466.60997  469.17396  471.87522  474.99341  478.55556  477.88620  472.36094  468.93125
   0.20000  616.01582  610.20992  601.63121  589.77898  571.02407  552.86437  557.97718  575.06196  586.11293  591.25968  591.06167  590.09597  586.59924  583.01563  580.07101  576.88804  573.94092  571.00412  567.52967  564.26022  560.17096  556.44905  552.57341  547.77944  543.44073  539.75321  535.66322  530.87486  527.15692  524.00261  520.73622  517.59818  514.69602  511.31719  507.65800  504.40590  501.81585  498.84520  495.24895  492.61537  491.42560  489.54443  487.84595  486.29076  485.22887  484.32820  483.84606  483.66340  483.60529  483.76218  484.08203  485.35599  487.65973  490.10058  493.02103  496.50815  495.26409  488.67747  484.44698
   0.30000  669.75439  663.18042  653.51341  639.96898  618.40890  597.33420  603.90255  623.67631  635.47342  640.90537  640.61775  639.40663  634.85487  630.26462  626.63736  622.66677  618.91914  615.09302  610.51051  606.15569  601.02011  596.29732  591.25956  585.19238  579.60006  575.01474  569.83308  563.78973  559.11131  555.06895  550.93817  546.84429  543.11574  538.81890  534.14340  529.74540  526.11637  522.09855  517.40222  513.72592  511.68817  508.97957  506.56673  504.34113  502.69545  501.24025  500.25077  499.58007  499.05199  498.78049  498.68422  499.66112  501.76946  504.01466  506.78715  510.21990  508.53966  501.14477  496.30476
   0.40000  714.01358  706.82749  696.28358  681.36315  657.50729  634.04385  641.83061  663.84279  676.27414  681.95951  681.61524  680.21829  674.80998  669.40235  665.22534  660.61733  656.22091  651.67162  646.18364  640.94130  634.94982  629.40805  623.41652  616.30233  609.67841  604.35668  598.27657  591.19800  585.72884  580.95543  576.11272  571.23004  566.82006  561.76481  556.24822  550.90035  546.41004  541.52349  535.91364  531.37111  528.62937  525.23349  522.22752  519.44514  517.31482  515.39917  513.98844  512.91237  511.99380  511.36641  510.92428  511.65495  513.60215  515.68585  518.33672  521.72629  519.68234  511.61117  506.26142
   0.50000  752.10962  744.41422  733.13223  717.04266  691.22325  665.71413  674.56658  698.52599  711.52031  717.43985  717.06169  715.51890  709.38406  703.28306  698.64371  693.49687  688.55116  683.38750  677.12641  671.12577  664.40271  658.16075  651.35127  643.33736  635.82634  629.87346  623.02065  615.04973  608.90030  603.49804  598.04259  592.47970  587.48254  581.77251  575.52855  569.35783  564.12140  558.48170  552.07904  546.78449  543.43200  539.43954  535.91890  532.65331  530.10256  527.78734  526.01110  524.58317  523.32556  522.38919  521.64669  522.16408  523.97241  525.91683  528.46329  531.81713  529.45623  520.79370  514.99846
   0.60000  785.75948  777.62973  765.71056  748.60179  721.05909  693.75229  703.56106  729.25863  742.76536  748.90600  748.51114  746.85211  740.08515  733.38079  728.34277  722.72878  717.30612  711.60708  704.66874  698.00341  690.63882  683.78267  676.25346  667.44626  659.15251  652.64462  645.10998  636.34975  629.59987  623.64257  617.64603  611.48126  605.96496  599.67488  592.78544  585.88329  579.98363  573.67392  566.56523  560.60075  556.70453  552.18070  548.20182  544.50589  541.58089  538.90989  536.80822  535.06692  533.50722  532.29561  531.28542  531.61326  533.29884  535.12003  537.57453  540.89814  538.25382  529.06067  522.86592
   0.70000  815.99285  807.48680  795.00843  776.99607  747.91507  719.00143  729.68299  756.95866  770.93947  777.29164  776.89376  775.14170  767.81552  760.57735  755.18996  749.16428  743.32060  737.14719  729.60554  722.34768  714.41099  707.00699  698.83369  689.31510  680.31892  673.31473  665.16814  655.69785  648.40890  641.95338  635.47088  628.76446  622.78134  615.96865  608.49661  600.93314  594.43381  587.51784  579.76964  573.19812  568.80956  563.80432  559.41044  555.32472  552.06085  549.06765  546.67128  544.64610  542.81266  541.35167  540.09883  540.25534  541.83057  543.54088  545.91305  549.21075  546.30865  536.63120  530.07201
   0.80000  843.48715  834.65157  821.67673  802.85372  772.38292  742.01564  753.50328  782.22909  796.65353  803.20990  802.82026  800.99406  793.16736  785.45135  779.75440  773.36172  767.14208  760.54344  752.45796  744.66562  736.21266  728.31414  719.55754  709.39332  699.75919  692.30587  683.60347  673.48667  665.70797  658.79986  651.87567  644.67590  638.26798  630.97872  622.97448  614.80585  607.75777  600.28656  591.95208  584.82383  579.98405  574.53739  569.76313  565.32006  561.74568  558.45714  555.79067  553.50522  551.42072  549.73103  548.25559  548.25537  549.73024  551.33961  553.63718  556.91250  553.77312  543.64828  536.75260
   0.90000  868.71744  859.59111  846.17180  826.61505  794.87731  763.18312  775.42187  805.49223  820.33535  827.09002  826.71810  824.83356  816.55500  808.40760  802.43413  795.71156  789.15338  782.17028  773.59026  765.31155  756.38860  748.03977  738.75022  727.99482  717.77609  709.91275  700.70100  689.99028  681.76265  674.43973  667.11050  659.45738  652.65942  644.93170  636.43691  627.70951  620.15474  612.17045  603.29361  595.65017  590.39313  584.53806  579.41200  574.63838  570.77688  567.21520  564.29895  561.77274  559.45590  557.55461  555.87312  555.72826  557.11103  558.62769  560.85711  564.11304  560.75324  550.21136  543.00220
   1.00000  892.03301  882.64875  868.82897  848.60360  815.70286  782.78898  795.73243  827.05816  842.29892  849.24700  848.90094  846.97152  838.28237  829.74294  823.52102  816.50006  809.63509  802.30212  793.26934  784.54504  775.19133  766.42969  756.64984  745.34938  734.59127  726.35105  716.66933  705.40921  696.76723  689.06152  681.35831  673.28569  666.12716  657.99323  649.04316  639.79620  631.77033  623.30859  613.92653  605.80299  600.15741  593.92182  588.46815  583.38661  579.25779  575.44174  572.29290  569.54240  567.00906  564.91063  563.03709  562.75780  564.05551  565.48645  567.65320  570.89230  567.32634  556.39299  548.88972
   1.10000  913.70008  904.08615  889.90377  869.06583  835.09159  801.05034  814.65855  847.16289  862.78324  869.92056  869.60740  867.64478  858.58061  849.68310  843.23697  835.94479  828.80045  821.14746  811.69797  802.56327  792.81266  783.67056  773.43721  761.63146  750.37295  741.78446  731.66671  719.89558  710.86910  702.80821  694.75781  686.29490  678.80121  670.28888  660.91390  651.18119  642.71485  633.80636  623.95104  615.37763  609.36823  602.77614  597.01566  591.64571  587.26663  583.21237  579.84575  576.88517  574.14896  571.86583  569.81229  569.40741  570.62612  571.97740  574.08623  577.31075  573.55089  562.24800  554.46725
   1.20000  933.92752  924.10850  909.59657  888.19497  853.22536  818.13737  832.37543  865.99133  881.97549  889.29843  889.02435  887.03871  877.63063  868.40474  861.75560  854.21599  846.81627  838.86938  829.03471  819.52039  809.40250  799.90825  789.25360  776.97735  765.25252  756.34082  745.81675  733.56817  724.18329  715.79141  707.41727  698.58961  690.78299  681.91660  672.14328  661.95436  653.07433  643.74592  633.44528  624.44838  618.09677  611.16918  605.12008  599.47877  594.86434  590.58600  587.01454  583.85629  580.92914  578.47220  576.24920  575.72644  576.87150  578.14841  580.20349  583.41543  579.47237  567.81906  559.77534
   1.30000  952.88300  942.88056  928.06817  906.14608  870.25011  834.18658  849.02361  883.69177  900.02577  907.53109  907.30153  905.30188  895.57738  886.04935  879.21596  871.44996  863.81608  855.59840  845.40646  835.53975  825.08081  815.25945  804.21200  791.49603  779.33506  770.12232  759.21823  746.52191  736.80175  728.10028  719.42317  710.25337  702.15353  692.95462  682.80646  672.18746  662.91745  653.19283  642.47157  633.07453  626.39982  619.15531  612.83368  606.93609  602.09949  597.60959  593.84474  590.49982  587.39227  584.77116  582.38802  581.75423  582.83037  584.03762  586.04266  589.24383  585.12702  573.14015  564.84626
   1.40000  970.70379  960.53713  945.45018  923.04601  886.28519  849.30959  864.71798  900.38543  917.05675  924.74154  924.56131  922.55567  912.53927  902.73253  895.73160  887.75799  879.90889  871.44106  860.91677  850.72201  839.94543  829.81937  818.40456  805.27638  792.70624  783.21228  771.95166  758.83415  748.79939  739.80746  730.84596  721.35425  712.97879  703.46661  692.96463  681.93889  672.30008  662.20047  651.08065  641.30433  634.32360  626.77874  620.19897  614.05859  609.01162  604.32133  600.37333  596.85155  593.57305  590.79638  588.26144  587.52274  588.53420  589.67602  591.63436  594.82639  590.54427  578.23888  569.70622
   1.50000  987.50406  977.19038  961.85203  939.00027  901.42984  863.59921  879.55404  916.17305  933.17036  941.03195  940.90534  938.90088  928.61461  918.55020  911.39678  903.23244  895.18516  886.48576  875.65154  865.15064  854.07750  843.66690  831.90767  818.39206  805.43703  795.67972  784.08377  770.56898  760.23824  750.97312  741.74397  731.94856  723.31337  713.50529  702.66844  691.25700  681.26847  670.81297  659.31448  649.17766  641.90630  634.07606  627.25110  620.88007  615.63336  610.75276  606.63085  602.94108  599.50011  596.57565  593.89643  593.05836  594.00899  595.08920  597.00386  600.18824  595.74843  583.13802  574.37686
   1.60000 1003.38014  992.93486  977.36600  954.09778  915.76770  877.13365  893.61228  931.13951  948.45249  956.48836  956.41922  954.42237  943.88617  933.58313  926.29082  917.95103  909.72101  900.80685  889.68303  878.89583  867.54526  856.86841  844.78555  830.90498  817.58709  807.58265  795.67058  781.78023  771.17040  761.64776  752.16616  742.08361  733.20310  723.11489  711.96035  700.18232  689.86140  679.06735  667.20823  656.72797  649.17996  641.07789  634.01953  627.42889  621.99209  616.93033  612.64290  608.79318  605.19748  602.13228  599.31560  598.38319  599.27649  600.29856  602.17231  605.35042  600.75981  587.85664  578.87628
   1.70000 1018.41425 1007.85131  992.07086  968.41444  929.37014  889.97964  906.96133  945.35720  962.97634  971.18415  971.17590  969.19250  958.42447  947.90014  940.48129  931.97996  923.58124  914.46764  903.07274  892.01735  880.40678  869.48034  857.09283  842.86781  829.20717  818.97040  806.75974  792.51364  781.64018  771.87432  762.15415  751.79958  742.68693  732.33298  720.87648  708.74929  698.11181  686.99505  674.79178  663.98366  656.17176  647.81027  640.52926  633.72908  628.11102  622.87647  618.43118  614.42887  610.68549  607.48601  604.53813  603.51597  604.35515  605.32228  607.15764  610.33075  605.59566  592.41089  583.21983
   1.80000 1032.67730 1022.00934 1006.03450  982.01566  942.29870  902.19469  919.66034  958.88849  976.80501  985.18253  985.23823  983.27354  972.29027  961.56046  954.02637  945.37620  936.82163  927.52262  915.87360  904.56659  892.71199  881.55125  868.87649  854.32582  840.34088  829.88534  817.39221  802.80854  791.68563  781.68968  771.74369  761.13097  751.79829  741.19183  729.44779  716.98746  706.04795  694.62304  682.09076  670.96908  662.90502  654.29550  646.80172  639.80126  634.01006  628.61041  624.01431  619.86616  615.98160  612.65377  609.58042  608.47275  609.26077  610.17591  611.97522  615.14451  610.27073  596.81462  587.42064
   1.90000 1046.23102 1035.46953 1019.31602  994.95839  954.60689  913.82881  931.76079  971.78762  989.99334  998.53844  998.66086  996.71966  985.53633  974.61559  966.97660  958.18926  949.49063  940.01909  928.13155  916.58819  904.50426  893.12330  880.17729  865.31830  851.02606  840.36427  827.60349  812.69904  801.33973  791.12582  780.96576  770.10770  760.56616  749.71939  737.70112  724.92244  713.69432  701.97468  689.12736  677.70533  669.39993  660.55289  652.85547  645.66328  639.70642  634.14878  629.40838  625.12064  621.10090  617.65019  614.45667  613.26742  614.00702  614.87288  616.63831  619.80488  614.79778  601.07977  591.49006
   2.00000 1059.12956 1048.28506 1031.96727 1007.29256  966.34167  924.92589  943.30777  984.10215 1002.58943 1011.30005 1011.49165 1009.57831  998.20892  987.11062  979.37626  970.46249  961.63067  951.99848  939.88684  928.12121  915.82153  904.23334  891.03091  875.87963  861.29580  850.43935  837.42466  822.21493  810.63133  800.21067  789.84745  778.75591  769.01584  757.94008  745.65991  732.57659  721.07229  709.07036  695.92096  684.21080  675.67410  666.59930  658.70668  651.33071  645.21514  639.50608  634.62743  630.20589  626.05653  622.48804  619.17927  617.91207  618.60580  619.42491  621.15848  624.32338  619.18790  605.21676  595.43797
   3.00000 1160.50904 1149.25409 1131.87933 1104.93019 1059.45141 1013.17940 1035.34954 1082.48464 1103.44705 1113.70991 1114.68296 1113.21847 1100.56912 1088.25147 1079.95634 1070.22426 1060.51290 1049.77075 1036.02296 1022.62704 1008.74161  995.62900  980.48826  963.09264  946.25957  933.94638  918.97548  901.37299  888.06076  876.04970  864.11849  851.19764  839.91343  827.03038  812.65821  797.11376  783.37923  769.08678  753.47035  739.40265  728.98267  718.04765  708.56573  699.69181  692.28715  685.34668  679.34479  673.83412  668.62748  664.09973  659.85008  657.96018  658.30563  658.76705  660.26986  663.46391  657.25798  641.12995  629.74553
   4.00000 1228.19436 1216.98218 1199.21018 1171.03121 1122.77423 1073.47015 1098.50872 1150.29272 1173.26447 1184.90789 1186.73051 1185.88486 1172.63763 1159.75525 1151.35366 1141.32609 1131.26854 1120.00742 1105.35270 1091.04274 1076.26436 1062.29261 1045.97922 1027.17347 1008.91249  995.74385  979.53680  960.36061  945.95693  932.94729  920.02434  905.90461  893.62658  879.54026  863.73713  846.46764  831.17181  815.25957  797.87496  782.11101  770.35071  758.08348  747.47112  737.52997  729.21414  721.40107  714.60541  708.32202  702.36220  697.15365  692.23283  689.92083  690.06005  690.30509  691.69088  694.97503  687.97083  670.16141  657.53388
   5.00000 1275.44382 1264.48321 1246.65178 1217.82024 1167.80049 1116.53327 1143.82142 1199.15491 1223.79370 1236.65824 1239.32144 1239.15095 1225.68544 1212.60407 1204.33851 1194.30386 1184.19784 1172.75479 1157.62090 1142.81941 1127.55857 1113.12334 1096.09996 1076.39353 1057.20865 1043.54944 1026.54997 1006.31008  991.20960  977.56862  964.01288  949.09009  936.16371  921.25602  904.44252  885.91899  869.49052  852.38963  833.68759  816.65472  803.90503  790.64756  779.20228  768.47363  759.49236  751.04042  743.66598  736.81669  730.30284  724.59616  719.18140  716.57947  716.60648  716.72893  718.07364  721.48941  713.86697  694.68932  681.05783
   6.00000 1309.29823 1298.67730 1280.96146 1251.81326 1200.66141 1148.10269 1177.18770 1235.29314 1261.32747 1275.26449 1278.72174 1279.22498 1265.76131 1252.69380 1244.69483 1234.81688 1224.83450 1213.41060 1198.06348 1183.03499 1167.54998 1152.90128 1135.46678 1115.19351 1095.41696 1081.50357 1064.00537 1043.04418 1027.50960 1013.48211  999.53401  984.07628  970.73519  955.26709  937.73313  918.28289  901.02012  883.03192  863.32901  845.32808  831.83587  817.82947  805.76130  794.44303  784.97030  776.04535  768.24493  760.97714  754.05148  747.97738  742.19576  739.39868  739.38093  739.44826  740.80668  744.38416  736.27408  715.95538  701.49365
   7.00000 1333.97461 1323.71798 1306.20322 1276.93677 1225.05844 1171.64615 1202.18178 1262.48265 1289.68975 1304.56267 1308.74970 1309.89487 1296.56014 1283.62993 1275.96320 1266.33272 1256.57193 1245.28746 1229.89595 1214.80985 1199.26708 1184.56675 1166.92037 1146.30687 1126.16577 1112.15594 1094.36057 1072.91735 1057.13001 1042.88528 1028.71195 1012.90832  999.31681  983.47422  965.42865  945.28993  927.41030  908.75555  888.28512  869.53850  855.48598  840.90938  828.37389  816.61295  806.77797  797.50355  789.39117  781.81512  774.58439  768.24108  762.18839  759.26743  759.25542  759.31844  760.73178  764.49340  755.99564  734.71042  719.55199
   8.00000 1352.18120 1342.27982 1325.00081 1295.73209 1243.39310 1189.41879 1221.13329 1283.18942 1311.38358 1327.06871 1331.91442 1333.65427 1320.51860 1307.79409 1300.48608 1291.14889 1281.66172 1270.58623 1255.25729 1240.22211 1224.72893 1210.08193 1192.35811 1171.56088 1151.21337 1137.21332 1119.26165 1097.50738 1081.59477 1067.25192 1052.97175 1036.95850 1023.23452 1007.15308  988.75033  968.10152  949.76806  930.61328  909.55259  890.22977  875.75548  860.74512  847.86105  835.76986  825.67153  816.14243  807.80571  800.00646  792.55321  786.01682  779.76755  776.77788  776.81042  776.90835  778.40842  782.37106  773.56485  751.45228  735.70368
   9.00000 1365.73677 1356.16457 1339.12703 1309.92136 1257.29740 1202.95737 1235.63403 1299.10282 1328.12800 1344.51471 1349.94735 1352.22790 1339.32569 1326.84058 1319.89380 1310.86755 1301.67685 1290.84716 1275.64694 1260.73079 1245.35521 1230.82846 1213.11781 1192.24549 1171.80247 1157.88333 1139.87441 1117.93273 1101.98505 1087.62840 1073.32583 1057.20232 1043.43136 1027.21135 1008.56747  987.54456  968.88173  949.35492  927.84135  908.07413  893.28548  877.94761  864.80737  852.47365  842.18908  832.47948  823.98712  816.03156  808.42098  801.75170  795.36498  792.35010  792.45744  792.62110  794.23272  798.40911  789.35872  766.53276  750.28120
