Temperature as a function of time and angular position 

Angular position
   theta1_[deg]   ..........   theta59_[deg]
              0.00000    2.30770    4.61537    6.92308    9.23076   11.53846   13.84615   16.15385   18.46154   20.76922   23.07693   25.38459   27.69235   29.99999   32.30761   34.61535   36.92316   39.23071   41.53852   43.84614   46.15391   48.46158   50.76920   53.07696   55.38465   57.69245   59.99996   62.30765   64.61545   66.92302   69.23081   71.53845   73.84626   76.15380   78.46165   80.76921   83.07696   85.38453   87.69242   90.00000   91.80880   93.61377   95.41182   97.19925   98.97270  100.72877  102.46490  104.17809  105.86579  107.52549  109.15559  110.75410  112.31952  113.85041  115.34617  116.80583  118.22886  119.61477  120.96376

Time and temperatures for the above positions
  time_[s]   T(theta1)_[K]      ..........  T(theta59)_[K]
   0.00000  310.05000  310.05000  310.05000  310.05000  310.05000  310.05000  310.05000  310.05000  310.05000  310.05000  310.05000  310.05000  310.05000  310.05000  310.05000  310.05000  310.05000  310.05000  310.05000  310.05000  310.05000  310.05000  310.05000  310.05000  310.05000  310.05000  310.05000  310.05000  310.05000  310.05000  310.05000  310.05000  310.05000  310.05000  310.05000  310.05000  310.05000  310.05000  310.05000  310.05000  310.05000  310.05000  310.05000  310.05000  310.05000  310.05000  310.05000  310.05000  310.05000  310.05000  310.05000  310.05000  310.05000  310.05000  310.05000  310.05000  310.05000  310.05000  310.05000
   0.10000  877.35334  868.94325  855.86140  826.84594  784.82611  774.22453  790.66193  806.62429  814.04818  816.53448  814.51042  810.29516  805.82875  799.56363  792.61881  787.15658  780.52293  773.01005  765.87836  759.71190  752.90287  745.08127  739.29768  732.15411  724.48857  718.53468  712.16297  706.18679  700.15535  694.24126  687.78435  681.21958  673.86396  666.30653  658.92452  651.45765  646.21369  641.56403  636.32132  629.80928  624.61278  619.39129  614.57913  610.12815  606.20338  602.67611  599.39763  596.60477  594.40870  592.22647  589.77911  586.27829  580.35469  574.33281  571.79197  569.79940  566.84992  560.73542  548.99091
   0.20000 1085.26102 1074.25318 1056.62656 1017.67851  959.45514  943.01424  968.04129  990.61392 1000.72746 1003.85242 1001.01956  995.22326  988.93185  980.62527  971.34725  963.66262  954.50997  944.12692  934.47765  925.89365  916.26716  905.32324  897.02007  887.04467  876.34245  867.67774  858.44303  849.59834  840.50255  831.51151  821.85411  812.11535  801.43387  790.20584  778.93947  767.37735  758.41782  750.25842  741.54513  731.47663  723.46423  715.55106  708.05375  701.02935  694.71566  688.97845  683.69308  679.02768  675.17879  671.43430  667.46456  662.53177  655.22550  648.54747  646.46689  644.51825  640.65541  632.25500  615.62562
   0.30000 1236.92058 1224.15630 1203.34574 1157.26554 1087.30474 1066.69883 1098.13482 1125.67345 1137.87992 1141.59199 1138.28071 1131.43511 1123.91155 1114.20983 1103.31775 1094.09712 1083.18544 1070.77947 1059.36413 1049.08434 1037.46165 1024.29104 1014.20461 1002.21006  989.33226  978.73043  967.44144  956.53446  945.22640  934.00970  922.03036  909.98544  896.88025  882.96634  868.84966  854.27469  842.58253  831.84084  820.57078  807.87717  797.79269  787.89780  778.42074  769.49788  761.42203  754.05507  747.29080  741.24576  736.18117  731.28761  726.19725  720.21059  711.88621  704.73865  703.03331  701.14423  696.61469  686.50538  666.19281
   0.40000 1358.50725 1344.44520 1321.18685 1269.47938 1190.17468 1166.30556 1202.99466 1234.63052 1248.62049 1252.90123 1249.29677 1241.69437 1233.26361 1222.52004 1210.40579 1200.02343 1187.76595 1173.79646 1161.02331 1149.43995 1136.26589 1121.35264 1109.88212 1096.30784 1081.71927 1069.59849 1056.69164 1044.15716 1031.09559 1018.11120 1004.28199  990.39695  975.35184  959.27912  942.86481  925.85472  911.95475  899.12589  885.78658  870.96423  859.20485  847.70727  836.62678  826.16544  816.66175  807.97461  800.01331  792.85184  786.80523  780.98353  774.98729  768.14889  759.00125  751.48562  750.11454  748.29678  743.23319  731.72030  708.35636
   0.50000 1460.38672 1445.32964 1420.10811 1363.76159 1276.68315 1250.14380 1291.33155 1326.49851 1342.07231 1346.91269 1343.13941 1334.97484 1325.85276 1314.30181 1301.22510 1289.92921 1276.59957 1261.37036 1247.50975 1234.88264 1220.45133 1204.11509 1191.52468 1176.66109 1160.66860 1147.30523 1133.06868 1119.19370 1104.68111 1090.23090 1074.86273 1059.44443 1042.77766 1024.89238 1006.54315  987.47679  971.71322  957.12193  942.03299  925.40706  912.23340  899.38179  886.94463  875.18081  864.46854  854.66428  845.69093  837.58582  830.71076  824.10612  817.34509  809.78780  799.94495  792.12885  791.06757  789.33073  783.82071  771.10328  745.09752
   0.60000 1547.99108 1532.15783 1505.32389 1445.05406 1351.33932 1322.55937 1367.69950 1405.98782 1423.00130 1428.39537 1424.54408 1415.95909 1406.30297 1394.11543 1380.26541 1368.23686 1354.03444 1337.76673 1323.01570 1309.53433 1294.06011 1276.53371 1263.01613 1247.07487 1229.90205 1215.49759 1200.14137 1185.13507 1169.39182 1153.69566 1137.01488 1120.28668 1102.22982 1082.78367 1062.76304 1041.91545 1024.53827 1008.42039  991.81389  973.62038  959.22179  945.19685  931.58227  918.68740  906.92582  896.15202  886.30113  877.37803  869.78630  862.50444  855.08134  846.90192  836.45711  828.39033  827.62258  825.97480  820.08247  806.30446  777.95166
   0.70000 1624.61620 1608.17355 1579.99564 1516.35192 1416.87506 1386.18428 1434.85557 1475.94916 1494.29074 1500.23339 1496.37354 1487.47696 1477.40765 1464.71489 1450.23714 1437.61526 1422.69367 1405.55801 1390.06857 1375.87917 1359.52747 1340.99061 1326.69475 1309.83937 1291.65893 1276.36917 1260.05565 1244.07975 1227.27616 1210.50403 1192.68562 1174.82021 1155.55222 1134.73963 1113.25108 1090.83459 1072.03683 1054.57449 1036.62962 1017.05068 1001.57349  986.51486  971.86134  957.96789  945.28010  933.65083  923.02644  913.38256  905.16073  897.28352  889.27791  880.55129  869.57678  861.29829  860.81243  859.26081  853.03608  838.30840  807.83472
   0.80000 1692.45413 1675.53354 1646.22467 1579.64533 1475.10500 1442.76620 1494.62990 1538.27423 1557.85330 1564.33934 1560.52564 1551.40382 1541.01742 1527.92408 1512.93477 1499.83077 1484.31279 1466.44563 1450.33943 1435.55913 1418.46253 1399.05934 1384.10466 1366.46640 1347.41705 1331.36713 1314.22679 1297.41130 1279.68435 1261.97295 1243.15763 1224.29393 1203.95879 1181.93616 1159.14336 1135.32870 1115.26563 1096.60537 1077.46629 1056.64845 1040.21048 1024.23058 1008.64963  993.86424  980.34940  967.95658  956.64253  946.35627  937.57416  929.16770  920.64379  911.43049  899.98462  891.52614  891.31348  889.86429  883.34760  867.75943  835.34597
   0.90000 1753.05799 1735.76546 1705.49898 1636.34314 1527.31338 1493.54169 1548.31698 1594.30067 1615.04105 1622.06486 1618.34116 1609.06420 1598.43895 1585.03042 1569.62453 1556.12942 1540.11573 1521.62911 1505.00607 1489.73110 1471.99872 1451.84791 1436.33280 1418.01990 1398.21607 1381.50929 1363.64989 1346.10225 1327.56514 1309.02752 1289.33172 1269.58469 1248.30158 1225.19837 1201.23681 1176.16535 1154.96556 1135.22875 1115.01490 1093.07955 1075.77845 1058.97052 1042.55458 1026.96572 1012.70606  999.62596  987.69186  976.82831  967.54396  958.66319  949.67435  940.02471  928.15599  919.54410  919.59790  918.25672  911.48185  895.10709  860.90349
   1.00000 1807.58019 1790.00261 1758.92219 1687.49007 1574.45229 1539.42722 1596.87604 1645.01942 1666.85538 1674.41074 1670.81262 1661.43830 1650.63896 1636.98612 1621.24276 1607.43236 1591.00701 1571.99468 1554.93841 1539.24936 1520.97273 1500.17403 1484.18114 1465.28460 1444.82262 1427.54595 1409.05830 1390.86908 1371.61735 1352.34895 1331.87101 1311.33778 1289.20745 1265.13315 1240.11745 1213.90880 1191.68111 1170.97052 1149.78301 1126.83296 1108.75146 1091.19450 1074.02195 1057.70458 1042.76987 1029.06718 1016.57211 1005.18653  995.44924  986.14082  976.73243  966.68922  954.43893  945.69635  946.01122  944.78309  937.77885  920.68018  884.81297
   1.10000 1856.90648 1839.11589 1807.34226 1733.88863 1617.25295 1581.12655 1641.04347 1691.19107 1714.06476 1722.14481 1718.70135 1709.27784 1698.35868 1684.52113 1668.50701 1654.44532 1637.67950 1618.22106 1600.80249 1584.76778 1566.02483 1544.66328 1528.26302 1508.86053 1487.82272 1470.05051 1451.01233 1432.25909 1412.37462 1392.45728 1371.28160 1350.04559 1327.15460 1302.20333 1276.23207 1248.98913 1225.82722 1204.23129 1182.15722 1158.28099 1139.49040 1121.25250 1103.39089 1086.40968 1070.86006 1056.59061 1043.58555 1031.72565 1021.57801 1011.88229 1002.09357  991.69380  979.09763  970.24413  970.81563  969.70510  962.49651  944.72804  907.30620
   1.20000 1901.73666 1883.79329 1851.42896 1776.17266 1656.29282 1619.19535 1681.40067 1733.41604 1757.27567 1765.87299 1762.60798 1753.17580 1742.18265 1728.21097 1711.98296 1697.72457 1680.67917 1660.84292 1643.12291 1626.80129 1607.65908 1585.80806 1569.06111 1549.21975 1527.67732 1509.47388 1489.95244 1470.70241 1450.25624 1429.76105 1407.96097 1386.09472 1362.51839 1336.77212 1309.93120 1281.74371 1257.72926 1235.32516 1212.44052 1187.71540 1168.27797 1149.41861 1130.92695 1113.33841 1097.22650 1082.43911 1068.96867 1056.67621 1046.15550 1036.10781 1025.97312 1015.24924 1002.33849  993.39145  994.21589  993.22710  985.83616  967.44527  928.56404
   1.30000 1942.63603 1924.59054 1891.72329 1814.85408 1692.03823 1654.08233 1718.41704 1772.17901 1796.97768 1806.08428 1803.01723 1793.61060 1782.58247 1768.51991 1752.12683 1737.71864 1720.44618 1700.29125 1682.32245 1665.76477 1646.28158 1624.00494 1606.96407 1586.74232 1564.75744 1546.17889 1526.23303 1506.54504 1485.59943 1464.58871 1442.22863 1419.79584 1395.60041 1369.13128 1341.49636 1312.44339 1287.64839 1264.50418 1240.87600 1215.37022 1195.34090 1175.91258 1156.84302 1138.69708 1122.06935 1106.80718 1092.91082 1080.22275 1069.36199 1058.99364 1048.54342 1037.52415 1024.32657 1015.30147 1016.37568 1015.51241 1007.95866  988.98735  948.73096
   1.40000 1980.06960 1961.96479 1928.67026 1850.35394 1724.87274 1686.15654 1752.47864 1807.87860 1833.57337 1843.18081 1840.32764 1830.97558 1819.94580 1805.82949 1789.31353 1774.79608 1757.34217 1736.92009 1718.74835 1701.99892 1682.22572 1659.57949 1642.29091 1621.74011 1599.36745 1580.46319 1560.14474 1540.07068 1518.68062 1497.20947 1474.34636 1451.40348 1426.64766 1399.51971 1371.15800 1341.30985 1315.79835 1291.97455 1267.66250 1241.43680 1220.86451 1200.91403 1181.31303 1162.65421 1145.55212 1129.85368 1115.56661 1102.51592 1091.34460 1080.68354 1069.94501 1058.65606 1045.19648 1036.10718 1037.42842 1036.69411 1028.99510 1009.48091  967.92463
   1.50000 2014.42570 1996.29781 1962.64150 1883.02394 1755.11671 1715.72621 1783.90790 1840.84772 1867.39895 1877.49835 1874.87197 1865.59916 1854.59630 1840.45828 1823.85605 1809.26452 1791.66895 1771.02489 1752.69034 1735.78798 1715.76961 1692.80324 1675.30764 1654.47315 1631.76113 1612.57485 1591.92977 1571.51569 1549.73007 1527.84754 1504.53219 1481.12955 1455.86576 1428.13623 1399.10789 1368.52752 1342.35687 1317.90775 1292.96533 1266.07421 1245.00285 1224.57219 1204.48146 1185.34975 1167.81056 1151.71048 1137.06437 1123.68073 1112.22537 1101.29677 1090.29443 1078.75898 1065.05976 1055.91879 1057.48462 1056.88244 1049.05402 1029.03082  986.24245
   1.60000 2046.03277 2027.91252 1993.95142 1913.16157 1783.04117 1743.05213 1812.97763 1871.36803 1898.73890 1909.32103 1906.93182 1897.75923 1886.80781 1872.67577 1856.01914 1841.38420 1823.68183 1802.85554 1784.39346 1767.37231 1747.14843 1723.90574 1706.23912 1685.16121 1662.15292 1642.72350 1621.79275 1601.07975 1578.94227 1556.69226 1532.97016 1509.15290 1483.42824 1455.14862 1425.50779 1394.25195 1367.47386 1342.44832 1316.92381 1289.41648 1267.88568 1247.01276 1226.47002 1206.90156 1188.95896 1172.48855 1157.51204 1143.82232 1132.10696 1120.93363 1109.68970 1097.92873 1084.01018 1074.82891 1076.63715 1076.17000 1068.22658 1047.72513 1003.76619
   1.70000 2075.17161 2057.08505 2022.86888 1941.02129 1808.87794 1768.35737 1839.92121 1899.68053 1927.83662 1938.89196 1936.74811 1927.69354 1916.81464 1902.71259 1886.02935 1871.37777 1853.59921 1832.62581 1814.06731 1796.95753 1776.56330 1753.08334 1735.27768 1713.99224 1690.72616 1671.08834 1649.90859 1628.93350 1606.48341 1583.90539 1559.81753 1535.62634 1509.48329 1480.70013 1450.49581 1418.61591 1391.27724 1365.71964 1339.65683 1311.57796 1289.62368 1268.34292 1247.38242 1227.41008 1209.09471 1192.28244 1177.00162 1163.03026 1151.07677 1139.67949 1128.21420 1116.24687 1102.12750 1092.91630 1094.96498 1094.63551 1086.59027 1065.63866 1020.56532
   1.80000 2102.08453 2084.05372 2049.62596 1966.82279 1832.82722 1791.83460 1864.94022 1925.99340 1954.90236 1966.42116 1964.52900 1955.60755 1944.81925 1930.76798 1914.08246 1899.43764 1881.60986 1860.52044 1841.89303 1824.72130 1804.18802 1780.50565 1762.58944 1741.12858 1717.63924 1697.82414 1676.42834 1655.22430 1632.49700 1609.62658 1585.21001 1560.68172 1534.15879 1504.91434 1474.19110 1441.73391 1413.87731 1387.82805 1361.26684 1332.65719 1310.31222 1288.65503 1267.30802 1246.96181 1228.30164 1211.17355 1195.61224 1181.38161 1169.21000 1157.60777 1145.93966 1133.78351 1119.48030 1110.24868 1112.53597 1112.34663 1104.21165 1082.83569 1036.69952
   1.90000 2126.98232 2109.02590 2074.42465 1990.75730 1855.06328 1813.65157 1888.21023 1950.48794 1980.11930 1992.09162 1990.45588 1981.68028 1970.99810 1957.01562 1940.34908 1925.73150 1907.87828 1886.70044 1868.02850 1850.81846 1830.17406 1806.32053 1788.31920 1766.71170 1743.03017 1723.06577 1701.48360 1680.08052 1657.10802 1633.97748 1609.26582 1584.43385 1557.56609 1527.89886 1496.69735 1463.70564 1435.37009 1408.86609 1381.84301 1352.73988 1330.03422 1308.02937 1286.32451 1265.63193 1246.65264 1229.23261 1213.41268 1198.94330 1186.57195 1174.78224 1162.92835 1150.59951 1136.12806 1126.88477 1129.40897 1129.36200 1121.14845 1099.37193 1052.22050
   2.00000 2150.04964 2132.18330 2097.44199 2012.99247 1875.73895 1833.95543 1909.88523 1973.32325 2003.64818 2016.06394 2014.68795 2006.06889 1995.50609 1981.60799 1964.97903 1950.40664 1932.54896 1911.30725 1892.61238 1875.38502 1854.65447 1830.65782 1812.59413 1790.86587 1767.02015 1746.93167 1725.18995 1703.61490 1680.42624 1657.06489 1632.08871 1606.98355 1579.80291 1549.74812 1518.10558 1484.61853 1455.83978 1428.91493 1401.46350 1371.90119 1348.86242 1326.53633 1304.49997 1283.48634 1264.21155 1246.52157 1230.46317 1215.77395 1203.21980 1191.25871 1179.23476 1166.74811 1152.12286 1142.87596 1145.63547 1145.73292 1137.45112 1115.29608 1067.17346
   3.00000 2308.46433 2291.93426 2256.93787 2167.75293 2020.27932 1976.51704 2062.73410 2135.04692 2170.99440 2187.28498 2188.48971 2181.72025 2172.74416 2160.18213 2144.54940 2131.02731 2113.85383 2092.85378 2074.69613 2058.04222 2037.36611 2012.98800 1995.13761 1973.17400 1948.75258 1928.37974 1906.07158 1883.82147 1859.60419 1835.08479 1808.67270 1782.04533 1753.01417 1720.50400 1685.96195 1649.12088 1617.36962 1587.62214 1557.26288 1524.52133 1499.28341 1474.83260 1450.56904 1427.39212 1406.14097 1386.66343 1369.05638 1352.95510 1339.27704 1326.27302 1313.20488 1299.76304 1284.20422 1275.25609 1280.29209 1281.91461 1273.38522 1248.38185 1192.42690
   4.00000 2389.24935 2374.15211 2339.77453 2248.85778 2096.70741 2052.56835 2144.99054 2222.83751 2262.62074 2281.83353 2285.27479 2280.35400 2273.09341 2262.11682 2247.88445 2235.80124 2219.86006 2199.83540 2182.82832 2167.34883 2147.53653 2123.75481 2106.85815 2085.57019 2061.60739 2041.86654 2020.00630 1998.12618 1974.04294 1949.56107 1922.99208 1896.13460 1866.64016 1833.24675 1797.50060 1759.12211 1726.05705 1695.06749 1663.37973 1629.09476 1602.95794 1577.63689 1552.40940 1528.29040 1506.20663 1486.00955 1467.83402 1451.24479 1437.27011 1424.01406 1410.67953 1397.02299 1381.25261 1372.99016 1380.17485 1383.39553 1375.14128 1348.44930 1287.01653
   5.00000 2432.34947 2418.42035 2384.78263 2293.32299 2138.98352 2095.00887 2191.29673 2272.68874 2315.09788 2336.44576 2341.65051 2338.28636 2332.52058 2322.97676 2310.07998 2299.36799 2284.68419 2265.76895 2249.98783 2235.75851 2217.00985 2194.12813 2178.36374 2158.03555 2134.89562 2116.09289 2095.05286 2073.94274 2050.47256 2026.53719 2000.38044 1973.88078 1944.57900 1911.08089 1874.99592 1836.03153 1802.52097 1771.12172 1738.94844 1704.00898 1677.66532 1652.14690 1626.64265 1602.25109 1579.96379 1559.63622 1541.43295 1524.86766 1511.05293 1497.98401 1484.81943 1471.36590 1455.79483 1448.41803 1457.62310 1462.44592 1454.76487 1427.09944 1361.68525
   6.00000 2455.95728 2442.89094 2409.88883 2318.35017 2162.99127 2119.32337 2218.05854 2301.74951 2345.95247 2368.82907 2375.36126 2373.21695 2368.64838 2360.27800 2348.50811 2338.95768 2325.37667 2307.48205 2292.80576 2279.70772 2261.98060 2240.02280 2225.34230 2205.99333 2183.74905 2165.92560 2145.79234 2125.56079 2102.86697 2079.66578 2054.15295 2028.26083 1999.45135 1966.23428 1930.26007 1891.22361 1857.73461 1826.37642 1794.18252 1759.09128 1732.91853 1707.57347 1682.17867 1657.89444 1635.76145 1615.63905 1597.71534 1581.46596 1568.06922 1555.43737 1542.69453 1529.68656 1514.55618 1508.16159 1519.25478 1525.64242 1518.70752 1490.54068 1422.17719
   7.00000 2469.11382 2456.65362 2424.13754 2332.68214 2176.86230 2133.49594 2233.79432 2318.98537 2364.40950 2388.36541 2395.86975 2394.64475 2390.99353 2383.53738 2372.66389 2364.04266 2351.36446 2334.33022 2320.57844 2308.43251 2291.59571 2270.47268 2256.74210 2238.28224 2216.87894 2199.96120 2180.69209 2161.31265 2139.40676 2116.96990 2092.16312 2066.95570 2038.75247 2005.99230 1970.35231 1931.51586 1898.29315 1867.21398 1835.25166 1800.29173 1774.48968 1749.51658 1724.44445 1700.48000 1678.70158 1658.97208 1641.49845 1625.72743 1612.88937 1600.83205 1588.65240 1576.22722 1561.67638 1556.29817 1569.14557 1577.03552 1570.94249 1542.59595 1472.02847
   8.00000 2476.53623 2464.48931 2432.32379 2340.99047 2184.97523 2141.85857 2243.16068 2329.33363 2375.58615 2400.29626 2408.49977 2407.95094 2404.98386 2398.21904 2388.03459 2380.13227 2368.16500 2351.82282 2338.81349 2327.43711 2311.33769 2290.92312 2277.98661 2260.28816 2239.62130 2223.49228 2204.99103 2186.37856 2165.20167 2143.48367 2119.36033 2094.82661 2067.24556 2035.00308 1999.79373 1961.29052 1928.45083 1897.76524 1866.16189 1831.48559 1806.14911 1781.64424 1757.00397 1733.47025 1712.15066 1692.91121 1675.97412 1660.76385 1648.55239 1637.13688 1625.59243 1613.82058 1599.92278 1595.55604 1610.02485 1619.33964 1614.13391 1585.82966 1513.61178
   9.00000 2480.76207 2468.99143 2437.07012 2345.85101 2189.76384 2146.83822 2248.78687 2335.60355 2382.41616 2407.64916 2416.34910 2416.28941 2413.82339 2407.57111 2397.90468 2390.54660 2379.12552 2363.32413 2350.89576 2340.12566 2324.61835 2304.78334 2292.49156 2275.42289 2255.37562 2239.90946 2222.06362 2204.11289 2183.57754 2162.50021 2138.99817 2115.08446 2088.09133 2056.36486 2021.61097 1983.49364 1951.07930 1920.82950 1889.63817 1855.31844 1830.47975 1806.47765 1782.31475 1759.25998 1738.44380 1719.73496 1703.36810 1688.75040 1677.18749 1666.43629 1655.55432 1644.46307 1631.24897 1627.86415 1643.82505 1654.47893 1650.17234 1622.06332 1548.61383
