Polar coordinates (r,theta) as a function of time (origin in the center of the hemisphere)

Angular position
   theta1_[deg]   ..........   theta59_[deg]
              0.00000    2.30770    4.61537    6.92308    9.23076   11.53846   13.84615   16.15385   18.46154   20.76922   23.07693   25.38459   27.69235   29.99999   32.30761   34.61535   36.92316   39.23071   41.53852   43.84614   46.15391   48.46158   50.76920   53.07696   55.38465   57.69245   59.99996   62.30765   64.61545   66.92302   69.23081   71.53845   73.84626   76.15380   78.46165   80.76921   83.07696   85.38453   87.69242   90.00000   91.80880   93.61377   95.41182   97.19925   98.97270  100.72877  102.46490  104.17809  105.86579  107.52549  109.15559  110.75410  112.31952  113.85041  115.34617  116.80583  118.22886  119.61477  120.96376

Radius as a function of time for the above positions
  time_[s]       r1_[mm]   ..........      r59_[mm]
   0.00000   25.00000   25.00000   25.00000   25.00000   25.00000   25.00000   25.00000   25.00000   25.00000   25.00000   25.00000   25.00000   25.00000   25.00000   25.00000   25.00000   25.00000   25.00000   25.00000   25.00000   25.00000   25.00000   25.00000   25.00000   25.00000   25.00000   25.00000   25.00000   25.00000   25.00000   25.00000   25.00000   25.00000   25.00000   25.00000   25.00000   25.00000   25.00000   25.00000   25.00000   25.01246   25.04981   25.11194   25.19866   25.30972   25.44479   25.60352   25.78545   25.99010   26.21691   26.46536   26.73483   27.02468   27.33423   27.66289   28.00995   28.37474   28.75654   29.15476
   0.10000   24.99521   24.99522   24.99526   24.99533   24.99543   24.99556   24.99571   24.99588   24.99607   24.99628   24.99652   24.99677   24.99704   24.99732   24.99762   24.99793   24.99825   24.99856   24.99887   24.99921   24.99953   24.99982   25.00000   25.00000   25.00000   25.00000   25.00000   25.00000   25.00000   25.00000   25.00000   25.00000   25.00000   25.00000   25.00000   25.00000   25.00000   25.00000   25.00000   25.00000   25.01246   25.04981   25.11194   25.19866   25.30972   25.44479   25.60352   25.78545   25.99010   26.21691   26.46536   26.73483   27.02468   27.33423   27.66289   28.00995   28.37474   28.75653   29.15476
   0.20000   24.99043   24.99045   24.99054   24.99068   24.99088   24.99113   24.99143   24.99177   24.99215   24.99257   24.99305   24.99355   24.99409   24.99464   24.99523   24.99586   24.99649   24.99712   24.99773   24.99840   24.99904   24.99963   25.00000   25.00000   25.00000   25.00000   25.00000   25.00000   25.00000   25.00000   25.00000   25.00000   25.00000   25.00000   25.00000   25.00000   25.00000   25.00000   25.00000   25.00000   25.01246   25.04981   25.11194   25.19866   25.30972   25.44479   25.60352   25.78545   25.99010   26.21691   26.46536   26.73483   27.02468   27.33423   27.66289   28.00995   28.37474   28.75653   29.15476
   0.30000   24.98567   24.98570   24.98583   24.98604   24.98634   24.98672   24.98716   24.98767   24.98824   24.98887   24.98958   24.99033   24.99114   24.99196   24.99284   24.99378   24.99472   24.99566   24.99658   24.99757   24.99854   24.99941   25.00000   25.00000   25.00000   25.00000   25.00000   25.00000   25.00000   25.00000   25.00000   25.00000   25.00000   25.00000   25.00000   25.00000   25.00000   25.00000   25.00000   25.00000   25.01246   25.04981   25.11194   25.19866   25.30972   25.44479   25.60352   25.78545   25.99010   26.21691   26.46536   26.73482   27.02468   27.33422   27.66288   28.00995   28.37474   28.75653   29.15475
   0.40000   24.98093   24.98097   24.98115   24.98142   24.98181   24.98232   24.98291   24.98359   24.98434   24.98518   24.98612   24.98711   24.98818   24.98928   24.99044   24.99169   24.99294   24.99419   24.99541   24.99673   24.99801   24.99917   25.00000   25.00000   25.00000   25.00000   25.00000   25.00000   25.00000   25.00000   25.00000   25.00000   25.00000   25.00000   25.00000   25.00000   25.00000   25.00000   25.00000   25.00000   25.01246   25.04981   25.11194   25.19866   25.30972   25.44479   25.60352   25.78545   25.99010   26.21691   26.46536   26.73482   27.02467   27.33422   27.66288   28.00994   28.37473   28.75652   29.15475
   0.50000   24.97621   24.97626   24.97648   24.97682   24.97731   24.97794   24.97867   24.97951   24.98046   24.98150   24.98267   24.98390   24.98523   24.98660   24.98804   24.98960   24.99115   24.99271   24.99423   24.99587   24.99747   24.99891   25.00000   25.00000   25.00000   25.00000   25.00000   25.00000   25.00000   25.00000   25.00000   25.00000   25.00000   25.00000   25.00000   25.00000   25.00000   25.00000   25.00000   25.00000   25.01246   25.04981   25.11194   25.19866   25.30972   25.44479   25.60352   25.78545   25.99010   26.21690   26.46536   26.73482   27.02467   27.33422   27.66288   28.00994   28.37473   28.75652   29.15474
   0.60000   24.97150   24.97157   24.97182   24.97223   24.97282   24.97357   24.97444   24.97545   24.97658   24.97782   24.97922   24.98069   24.98229   24.98392   24.98564   24.98751   24.98936   24.99122   24.99304   24.99500   24.99690   24.99863   25.00000   25.00000   25.00000   25.00000   25.00000   25.00000   25.00000   25.00000   25.00000   25.00000   25.00000   25.00000   25.00000   25.00000   25.00000   25.00000   25.00000   25.00000   25.01246   25.04981   25.11194   25.19866   25.30972   25.44479   25.60352   25.78545   25.99010   26.21690   26.46535   26.73482   27.02467   27.33421   27.66287   28.00993   28.37472   28.75651   29.15473
   0.70000   24.96681   24.96689   24.96719   24.96766   24.96834   24.96922   24.97023   24.97140   24.97271   24.97415   24.97578   24.97748   24.97934   24.98123   24.98324   24.98540   24.98755   24.98971   24.99183   24.99410   24.99632   24.99832   25.00000   25.00000   25.00000   25.00000   25.00000   25.00000   25.00000   25.00000   25.00000   25.00000   25.00000   25.00000   25.00000   25.00000   25.00000   25.00000   25.00000   25.00000   25.01246   25.04981   25.11194   25.19866   25.30972   25.44479   25.60352   25.78545   25.99010   26.21690   26.46535   26.73481   27.02466   27.33421   27.66286   28.00992   28.37471   28.75650   29.15472
   0.80000   24.96214   24.96223   24.96257   24.96311   24.96388   24.96488   24.96603   24.96736   24.96885   24.97049   24.97234   24.97428   24.97639   24.97855   24.98083   24.98329   24.98574   24.98820   24.99060   24.99320   24.99571   24.99800   25.00000   25.00000   25.00000   25.00000   25.00000   25.00000   25.00000   25.00000   25.00000   25.00000   25.00000   25.00000   25.00000   25.00000   25.00000   25.00000   25.00000   25.00000   25.01246   25.04981   25.11194   25.19866   25.30972   25.44479   25.60352   25.78545   25.99009   26.21690   26.46535   26.73481   27.02466   27.33420   27.66286   28.00992   28.37470   28.75649   29.15471
   0.90000   24.95749   24.95759   24.95797   24.95857   24.95943   24.96055   24.96184   24.96333   24.96500   24.96684   24.96891   24.97108   24.97345   24.97586   24.97842   24.98118   24.98392   24.98667   24.98937   24.99227   24.99509   24.99765   25.00000   25.00000   25.00000   25.00000   25.00000   25.00000   25.00000   25.00000   25.00000   25.00000   25.00000   25.00000   25.00000   25.00000   25.00000   25.00000   25.00000   25.00000   25.01246   25.04981   25.11194   25.19866   25.30972   25.44479   25.60352   25.78545   25.99009   26.21690   26.46534   26.73480   27.02465   27.33419   27.66285   28.00991   28.37469   28.75648   29.15469
   1.00000   24.95285   24.95296   24.95338   24.95405   24.95500   24.95624   24.95767   24.95932   24.96116   24.96320   24.96548   24.96789   24.97050   24.97318   24.97600   24.97905   24.98209   24.98514   24.98812   24.99133   24.99445   24.99729   25.00000   25.00000   25.00000   25.00000   25.00000   25.00000   25.00000   25.00000   25.00000   25.00000   25.00000   25.00000   25.00000   25.00000   25.00000   25.00000   25.00000   25.00000   25.01246   25.04981   25.11194   25.19866   25.30972   25.44479   25.60352   25.78545   25.99009   26.21689   26.46534   26.73480   27.02465   27.33419   27.66284   28.00990   28.37468   28.75646   29.15468
   1.10000   24.94823   24.94835   24.94881   24.94954   24.95059   24.95194   24.95350   24.95531   24.95733   24.95956   24.96206   24.96470   24.96756   24.97049   24.97358   24.97693   24.98025   24.98359   24.98685   24.99037   24.99379   24.99690   24.99989   25.00000   25.00000   25.00000   25.00000   25.00000   25.00000   25.00000   25.00000   25.00000   25.00000   25.00000   25.00000   25.00000   25.00000   25.00000   25.00000   25.00000   25.01246   25.04981   25.11194   25.19866   25.30972   25.44479   25.60352   25.78544   25.99009   26.21689   26.46533   26.73479   27.02464   27.33418   27.66283   28.00988   28.37467   28.75645   29.15466
   1.20000   24.94363   24.94376   24.94426   24.94505   24.94619   24.94766   24.94935   24.95132   24.95350   24.95593   24.95865   24.96151   24.96462   24.96780   24.97116   24.97479   24.97840   24.98203   24.98558   24.98940   24.99312   24.99649   24.99975   25.00000   25.00000   25.00000   25.00000   25.00000   25.00000   25.00000   25.00000   25.00000   25.00000   25.00000   25.00000   25.00000   25.00000   25.00000   25.00000   25.00000   25.01246   25.04981   25.11194   25.19866   25.30972   25.44479   25.60352   25.78544   25.99009   26.21689   26.46533   26.73479   27.02463   27.33417   27.66282   28.00987   28.37465   28.75643   29.15464
   1.30000   24.93904   24.93918   24.93972   24.94058   24.94180   24.94339   24.94522   24.94733   24.94969   24.95231   24.95524   24.95833   24.96168   24.96511   24.96874   24.97265   24.97655   24.98046   24.98429   24.98841   24.99242   24.99606   24.99958   25.00000   25.00000   25.00000   25.00000   25.00000   25.00000   25.00000   25.00000   25.00000   25.00000   25.00000   25.00000   25.00000   25.00000   25.00000   25.00000   25.00000   25.01246   25.04981   25.11194   25.19866   25.30972   25.44479   25.60352   25.78544   25.99008   26.21688   26.46532   26.73478   27.02462   27.33416   27.66281   28.00986   28.37464   28.75642   29.15462
   1.40000   24.93447   24.93462   24.93520   24.93612   24.93743   24.93913   24.94109   24.94336   24.94589   24.94869   24.95184   24.95515   24.95875   24.96242   24.96631   24.97051   24.97468   24.97887   24.98298   24.98741   24.99171   24.99561   24.99938   25.00000   25.00000   25.00000   25.00000   25.00000   25.00000   25.00000   25.00000   25.00000   25.00000   25.00000   25.00000   25.00000   25.00000   25.00000   25.00000   25.00000   25.01246   25.04981   25.11194   25.19866   25.30972   25.44479   25.60352   25.78544   25.99008   26.21688   26.46532   26.73477   27.02461   27.33415   27.66279   28.00984   28.37462   28.75640   29.15460
   1.50000   24.92992   24.93008   24.93070   24.93167   24.93307   24.93489   24.93698   24.93940   24.94210   24.94509   24.94844   24.95197   24.95581   24.95973   24.96388   24.96836   24.97281   24.97728   24.98166   24.98639   24.99097   24.99514   24.99917   25.00000   25.00000   25.00000   25.00000   25.00000   25.00000   25.00000   25.00000   25.00000   25.00000   25.00000   25.00000   25.00000   25.00000   25.00000   25.00000   25.00000   25.01246   25.04981   25.11194   25.19866   25.30972   25.44479   25.60352   25.78544   25.99008   26.21687   26.46531   26.73476   27.02460   27.33414   27.66278   28.00983   28.37460   28.75638   29.15458
   1.60000   24.92538   24.92556   24.92621   24.92725   24.92873   24.93066   24.93288   24.93545   24.93831   24.94149   24.94505   24.94880   24.95287   24.95704   24.96144   24.96620   24.97093   24.97568   24.98033   24.98535   24.99022   24.99465   24.99893   25.00000   25.00000   25.00000   25.00000   25.00000   25.00000   25.00000   25.00000   25.00000   25.00000   25.00000   25.00000   25.00000   25.00000   25.00000   25.00000   25.00000   25.01246   25.04981   25.11194   25.19866   25.30972   25.44479   25.60351   25.78544   25.99007   26.21687   26.46530   26.73475   27.02459   27.33412   27.66277   28.00981   28.37458   28.75636   29.15456
   1.70000   24.92086   24.92105   24.92174   24.92283   24.92441   24.92644   24.92879   24.93151   24.93454   24.93790   24.94166   24.94563   24.94994   24.95435   24.95900   24.96403   24.96904   24.97406   24.97899   24.98430   24.98945   24.99414   24.99867   25.00000   25.00000   25.00000   25.00000   25.00000   25.00000   25.00000   25.00000   25.00000   25.00000   25.00000   25.00000   25.00000   25.00000   25.00000   25.00000   25.00000   25.01246   25.04981   25.11194   25.19866   25.30972   25.44479   25.60351   25.78543   25.99007   26.21686   26.46529   26.73474   27.02458   27.33411   27.66275   28.00979   28.37456   28.75634   29.15453
   1.80000   24.91636   24.91655   24.91728   24.91844   24.92009   24.92224   24.92471   24.92758   24.93077   24.93431   24.93828   24.94246   24.94701   24.95165   24.95656   24.96186   24.96714   24.97244   24.97763   24.98323   24.98867   24.99361   24.99839   25.00000   25.00000   25.00000   25.00000   25.00000   25.00000   25.00000   25.00000   25.00000   25.00000   25.00000   25.00000   25.00000   25.00000   25.00000   25.00000   25.00000   25.01246   25.04981   25.11194   25.19866   25.30972   25.44479   25.60351   25.78543   25.99006   26.21685   26.46528   26.73473   27.02457   27.33409   27.66273   28.00978   28.37454   28.75631   29.15450
   1.90000   24.91187   24.91207   24.91284   24.91405   24.91579   24.91805   24.92065   24.92366   24.92701   24.93074   24.93490   24.93930   24.94407   24.94896   24.95412   24.95969   24.96524   24.97080   24.97626   24.98214   24.98786   24.99306   24.99809   25.00000   25.00000   25.00000   25.00000   25.00000   25.00000   25.00000   25.00000   25.00000   25.00000   25.00000   25.00000   25.00000   25.00000   25.00000   25.00000   25.00000   25.01246   25.04981   25.11194   25.19866   25.30972   25.44479   25.60351   25.78543   25.99006   26.21684   26.46527   26.73472   27.02455   27.33408   27.66272   28.00976   28.37452   28.75629   29.15448
   2.00000   24.90740   24.90761   24.90841   24.90969   24.91151   24.91387   24.91660   24.91975   24.92326   24.92717   24.93153   24.93614   24.94114   24.94626   24.95167   24.95751   24.96332   24.96915   24.97488   24.98104   24.98704   24.99249   24.99776   25.00000   25.00000   25.00000   25.00000   25.00000   25.00000   25.00000   25.00000   25.00000   25.00000   25.00000   25.00000   25.00000   25.00000   25.00000   25.00000   25.00000   25.01246   25.04981   25.11194   25.19866   25.30972   25.44479   25.60351   25.78542   25.99005   26.21684   26.46526   26.73471   27.02454   27.33406   27.66270   28.00974   28.37450   28.75626   29.15445
   3.00000   24.86355   24.86385   24.86500   24.86682   24.86943   24.87281   24.87671   24.88122   24.88626   24.89185   24.89811   24.90471   24.91189   24.91924   24.92700   24.93537   24.94372   24.95209   24.96032   24.96919   24.97782   24.98570   24.99332   25.00000   25.00000   25.00000   25.00000   25.00000   25.00000   25.00000   25.00000   25.00000   25.00000   25.00000   25.00000   25.00000   25.00000   25.00000   25.00000   25.00000   25.01246   25.04981   25.11194   25.19866   25.30972   25.44479   25.60347   25.78536   25.98997   26.21673   26.46513   26.73455   27.02436   27.33386   27.66246   28.00947   28.37420   28.75594   29.15408
   4.00000   24.82120   24.82158   24.82304   24.82535   24.82867   24.83296   24.83792   24.84365   24.85007   24.85719   24.86515   24.87357   24.88272   24.89209   24.90198   24.91265   24.92330   24.93398   24.94450   24.95584   24.96687   24.97698   24.98678   24.99598   25.00000   25.00000   25.00000   25.00000   25.00000   25.00000   25.00000   25.00000   25.00000   25.00000   25.00000   25.00000   25.00000   25.00000   25.00000   25.00000   25.01246   25.04981   25.11194   25.19866   25.30972   25.44475   25.60337   25.78525   25.98982   26.21655   26.46492   26.73431   27.02410   27.33356   27.66214   28.00912   28.37381   28.75551   29.15360
   5.00000   24.78024   24.78070   24.78243   24.78519   24.78914   24.79424   24.80016   24.80698   24.81463   24.82313   24.83263   24.84268   24.85360   24.86481   24.87662   24.88935   24.90210   24.91485   24.92746   24.94104   24.95426   24.96643   24.97824   24.98935   25.00000   25.00000   25.00000   25.00000   25.00000   25.00000   25.00000   25.00000   25.00000   25.00000   25.00000   25.00000   25.00000   25.00000   25.00000   25.00000   25.01246   25.04981   25.11194   25.19866   25.30965   25.44462   25.60319   25.78505   25.98959   26.21629   26.46462   26.73398   27.02375   27.33318   27.66172   28.00867   28.37332   28.75498   29.15301
   6.00000   24.74058   24.74111   24.74309   24.74624   24.75074   24.75658   24.76335   24.77113   24.77989   24.78962   24.80049   24.81200   24.82451   24.83737   24.85091   24.86549   24.88011   24.89473   24.90923   24.92485   24.94006   24.95411   24.96776   24.98065   24.99413   25.00000   25.00000   25.00000   25.00000   25.00000   25.00000   25.00000   25.00000   25.00000   25.00000   25.00000   25.00000   25.00000   25.00000   25.00000   25.01246   25.04973   25.11187   25.19851   25.30946   25.44439   25.60292   25.78476   25.98927   26.21593   26.46424   26.73356   27.02331   27.33271   27.66121   28.00813   28.37274   28.75436   29.15233
   7.00000   24.70213   24.70272   24.70491   24.70841   24.71341   24.71988   24.72741   24.73604   24.74579   24.75661   24.76869   24.78150   24.79543   24.80976   24.82485   24.84108   24.85738   24.87367   24.88987   24.90733   24.92432   24.94009   24.95545   24.96997   24.98519   24.99835   25.00000   25.00000   25.00000   25.00000   25.00000   25.00000   25.00000   25.00000   25.00000   25.00000   25.00000   25.00000   25.00000   25.00000   25.01225   25.04942   25.11159   25.19822   25.30914   25.44405   25.60253   25.78436   25.98884   26.21547   26.46374   26.73304   27.02277   27.33214   27.66061   28.00751   28.37208   28.75366   29.15157
   8.00000   24.66478   24.66543   24.66781   24.67162   24.67705   24.68407   24.69226   24.70164   24.71225   24.72404   24.73719   24.75115   24.76633   24.78198   24.79843   24.81611   24.83391   24.85169   24.86942   24.88852   24.90713   24.92447   24.94138   24.95741   24.97424   24.98885   25.00000   25.00000   25.00000   25.00000   25.00000   25.00000   25.00000   25.00000   25.00000   25.00000   25.00000   25.00000   25.00000   25.00000   25.01180   25.04894   25.11114   25.19777   25.30868   25.44357   25.60200   25.78382   25.98828   26.21489   26.46313   26.73241   27.02214   27.33148   27.65992   28.00680   28.37134   28.75289   29.15074
   9.00000   24.62847   24.62916   24.63170   24.63578   24.64157   24.64908   24.65784   24.66786   24.67923   24.69186   24.70594   24.72092   24.73719   24.75400   24.77165   24.79061   24.80973   24.82882   24.84791   24.86848   24.88853   24.90729   24.92563   24.94305   24.96138   24.97734   24.99205   25.00000   25.00000   25.00000   25.00000   25.00000   25.00000   25.00000   25.00000   25.00000   25.00000   25.00000   25.00000   25.00000   25.01114   25.04826   25.11051   25.19714   25.30804   25.44292   25.60131   25.78314   25.98759   26.21418   26.46240   26.73167   27.02139   27.33073   27.65915   28.00601   28.37052   28.75206   29.14986
