Temperature as a function of time and angular position 

Angular position
   theta1_[deg]   ..........   theta59_[deg]
              0.00000    2.30770    4.61537    6.92308    9.23076   11.53846   13.84615   16.15385   18.46154   20.76922   23.07693   25.38459   27.69235   29.99999   32.30761   34.61535   36.92316   39.23071   41.53852   43.84614   46.15391   48.46158   50.76920   53.07696   55.38465   57.69245   59.99996   62.30765   64.61545   66.92302   69.23081   71.53845   73.84626   76.15380   78.46165   80.76921   83.07696   85.38453   87.69242   90.00000   91.80880   93.61377   95.41182   97.19925   98.97270  100.72877  102.46490  104.17809  105.86579  107.52549  109.15559  110.75410  112.31952  113.85041  115.34617  116.80583  118.22886  119.61477  120.96376

Time and temperatures for the above positions
  time_[s]   T(theta1)_[K]      ..........  T(theta59)_[K]
   0.00000  302.45000  302.45000  302.45000  302.45000  302.45000  302.45000  302.45000  302.45000  302.45000  302.45000  302.45000  302.45000  302.45000  302.45000  302.45000  302.45000  302.45000  302.45000  302.45000  302.45000  302.45000  302.45000  302.45000  302.45000  302.45000  302.45000  302.45000  302.45000  302.45000  302.45000  302.45000  302.45000  302.45000  302.45000  302.45000  302.45000  302.45000  302.45000  302.45000  302.45000  302.45000  302.45000  302.45000  302.45000  302.45000  302.45000  302.45000  302.45000  302.45000  302.45000  302.45000  302.45000  302.45000  302.45000  302.45000  302.45000  302.45000  302.45000  302.45000
   0.10000  649.06047  654.74740  656.26293  654.25360  650.31043  636.05645  629.79837  626.24916  622.96966  620.16128  617.14683  612.60137  606.23982  601.64900  597.08333  591.29233  586.20415  581.13021  576.47665  571.71433  566.02950  560.48293  554.45935  549.76379  546.25295  540.80925  533.70540  527.32394  523.15125  519.51329  514.99424  509.02937  504.94916  499.88878  493.59054  487.12602  481.13006  475.88741  470.74883  466.82433  464.40712  462.11731  459.74841  457.68994  456.57674  456.84582  457.05047  456.67139  457.12138  458.43334  459.53129  460.51171  461.73731  463.17974  462.85984  461.20538  462.79533  466.91351  472.05319
   0.20000  769.96363  778.03516  779.86046  777.13675  771.47529  752.30429  743.71395  738.43001  733.89322  729.72199  725.04022  718.64132  709.79530  703.29096  696.45445  687.93836  680.55592  673.48636  666.90480  660.23654  651.92641  643.47664  634.45344  627.38291  621.66716  613.39356  602.89404  593.53360  587.28000  581.84368  575.13100  566.59714  560.63873  553.37456  544.61834  535.68485  527.41579  520.15859  513.14524  507.68843  503.99398  500.43025  496.80810  493.56686  491.42642  490.85340  490.19398  488.85708  488.43437  488.94532  489.20043  489.31454  489.68804  490.28433  488.96152  486.22369  486.97463  490.38849  494.85005
   0.30000  855.10849  865.04694  867.27693  864.23095  857.53009  835.03616  824.94999  818.58859  813.30936  808.31458  802.58481  794.99748  784.50097  776.75039  768.40214  758.03720  749.11027  740.70615  732.83270  724.88232  714.75769  704.28203  693.15388  684.42913  677.17751  666.90102  653.97337  642.48426  634.75937  628.05571  619.77738  609.39328  602.09273  593.23902  582.69841  571.96679  562.04072  553.31520  544.93401  538.36241  533.74151  529.25100  524.71484  520.61007  517.72099  516.53693  515.24800  513.20881  512.14634  512.07011  511.70467  511.17881  510.92153  510.89003  508.81871  505.26951  505.39364  508.28203  512.23696
   0.40000  921.02591  932.55424  935.24188  932.08695  924.71464  899.75797  888.62928  881.54779  875.80733  870.28363  863.84366  855.43042  843.73671  835.10383  825.65700  813.91912  803.85579  794.47761  785.65938  776.76731  765.26836  753.24221  740.49343  730.50565  722.08151  710.24928  695.41501  682.25585  673.38985  665.70692  656.20219  644.35484  636.00179  625.88930  613.92598  601.75599  590.50322  580.60235  571.12513  563.66300  558.30443  553.07368  547.80566  543.00870  539.52066  537.85009  536.05780  533.45325  531.87589  531.32712  530.46004  529.41500  528.64491  528.10185  525.41685  521.20010  520.80983  523.26762  526.80682
   0.50000  974.36673  987.29857  990.47384  987.34542  979.53899  952.67997  940.80321  933.23373  927.21468  921.35393  914.42436  905.42240  892.82852  883.55213  873.27813  860.48006  849.54887  839.43419  829.90013  820.29110  807.70805  794.44479  780.39462  769.40210  760.04552  746.95245  730.55503  716.02804  706.23912  697.76756  687.26038  674.20480  664.99063  653.83738  640.68941  627.31764  614.95541  604.07197  593.67754  585.47266  579.50099  573.65304  567.77318  562.39692  558.40870  556.33396  554.12162  551.04187  549.03189  548.08614  546.79561  545.31071  544.10521  543.12676  539.91612  535.12553  534.29424  536.38343  539.56624
   0.60000 1018.66353 1032.85815 1036.53632 1033.52607 1025.45109  997.08893  984.67211  976.77818  970.60879  964.54633  957.28369  947.86194  934.58053  924.83150  913.92512  900.29197  888.68630  878.00635  867.92171  857.75817  844.30109  830.02776  814.90768  803.09788  792.98325  778.84354  761.13242  745.45722  734.90422  725.78296  714.43642  700.35813  690.42234  678.38710  664.22766  649.82618  636.51252  624.78679  613.60530  604.76537  598.27153  591.89612  585.49197  579.61876  575.20246  572.78380  570.21229  566.72313  564.34055  563.05299  561.39602  559.52901  557.94440  556.58591  552.91343  547.61677  546.39762  548.16317  551.03260
   0.70000 1056.08313 1071.42678 1075.61297 1072.78459 1064.56156 1034.99571 1022.19286 1014.09495 1007.86913 1001.70467  994.22528  984.50993  970.70108  960.60783  949.21621  934.91872  922.78528  911.67003  901.16043  890.56609  876.39559  861.28606  845.27358  832.79030  822.05154  807.02992  788.19706  771.54280  760.34815  750.68440  738.62433  723.66652  713.11692  700.32235  685.28521  669.98693  655.84394  643.38438  631.51649  622.12488  615.17936  608.34606  601.48545  595.17912  590.39070  587.67498  584.79162  580.94406  578.23549  576.64896  574.66975  572.46538  570.54527  568.84959  564.76451  559.01401  557.44802  558.92468  561.51395
   0.80000 1088.07848 1104.47507 1109.16722 1106.56523 1098.28399 1067.74656 1054.67504 1046.46431 1040.25246 1034.06134 1026.45406 1016.54219 1002.33035  991.99238  980.23028  965.40240  952.85622  941.40759  930.57176  919.64403  904.88728  889.07962  872.31590  859.27353  848.01726  832.24520  812.44410  794.94609  783.20777  773.08737  760.41469  744.69225  733.61541  720.16006  704.35273  688.26452  673.39042  660.28429  647.81104  637.93496  630.59462  623.35956  616.09725  609.40934  604.29403  601.31917  598.16224  593.99753  591.00067  589.14985  586.88415  584.37858  582.15817  580.15989  575.70187  569.53952  567.65976  568.87554  571.21141
   0.90000 1115.68450 1133.05051 1138.24135 1135.89647 1127.62485 1096.29986 1083.05078 1074.79729 1068.65283 1062.49277 1054.82669 1044.79439 1030.27835 1019.77434 1007.73324  992.48247  979.61579  967.91551  956.83276  945.65009  930.41029  914.01687  896.61708  883.10888  871.42214  855.00737  834.36408  816.13353  803.93202  793.42553  780.22334  763.83104  752.29840  738.26366  721.77501  704.98524  689.46130  675.78089  662.76942  652.46458  644.77663  637.18641  629.56788  622.54121  617.13663  613.93424  610.53565  606.08812  602.83436  600.74814  598.22575  595.44906  592.95769  590.68558  585.88755  579.34819  577.18210  578.16029  580.26503
   1.00000 1139.67108 1157.93246 1163.61093 1161.54368 1153.33320 1121.36888 1108.01373 1099.77181 1093.73546 1087.65101 1079.98038 1069.88800 1055.14738 1044.54036 1032.29424 1016.70825 1003.59624  991.71083  980.44587  969.07247  953.43482  936.54880  918.60865  904.71204  892.66718  875.69964  854.31976  835.44986  822.85254  812.01909  798.35720  781.37479  769.44646  754.90096  737.80599  720.38931  704.28422  690.09065  676.59777  665.91136  657.91580  650.00996  642.07380  634.74474  629.08287  625.67983  622.06673  617.36560  613.88168  611.58469  608.83095  605.80878  603.07139  600.54995  595.43989  588.55310  586.12402  586.88443  588.77697
   1.10000 1160.62987 1179.72004 1185.87236 1184.09558 1175.98530 1143.50244 1130.09772 1121.90962 1116.01236 1110.03793 1102.40558 1092.30134 1077.40093 1066.74183 1054.35116 1038.50231 1025.20685 1013.19109 1001.79732  990.28631  974.32209  957.02171  938.62184  924.40200  912.05997  894.61585  872.58916  853.15919  840.22329  829.11310  815.05104  797.54669  785.27404  770.27653  752.63956  734.66005  718.03282  703.37862  689.45320  678.42585  670.15714  661.96976  653.74926  646.14921  640.25766  636.67724  632.87314  627.94369  624.25275  621.76633  618.80323  615.55778  612.59599  609.84643  604.44855  597.23988  594.56801  595.12782  596.82454
   1.20000 1179.02709 1198.88562 1205.49605 1204.01671 1196.03605 1163.13391 1149.72440 1141.62294 1135.88813 1130.05018 1122.48996 1112.41251 1097.40538 1086.73558 1074.25014 1058.19865 1044.77115 1032.67044 1021.19225 1009.58797  993.35737  975.70908  956.91815  942.43047  929.84315  911.98774  889.39145  869.46966  856.24433  844.90057  830.48967  812.52236  799.94979  784.55121  766.42809  747.94146  730.84342  715.77433  701.45896  690.12606  681.61428  673.17512  664.69937  656.85577  650.75874  647.02133  643.04683  637.91122  634.03359  631.37649  628.22332  624.77409  621.60690  618.64787  612.98341  605.47528  602.57834  602.95263  604.46795
   1.30000 1195.23747 1215.80909 1222.86058 1221.68113 1213.85194 1180.61261 1167.23378 1159.24432 1153.68928 1148.00794 1140.54652 1130.52685 1115.45670 1104.80988 1092.27081 1076.06712 1062.55049 1050.40267 1038.87718 1027.21681 1010.77106  992.83170  973.70869  959.00063  946.21255  928.00224  904.90341  884.54907  871.07691  859.53697  844.82195  826.44319  813.60946  797.85437  779.29409  760.34927  742.82555  727.38181  712.71396  701.10671  692.37835  683.71366  675.00836  666.94547  660.66435  656.78802  652.66137  647.33927  643.29298  640.48184  637.15575  633.52006  630.16435  627.01240  621.10022  613.31251  610.20626  610.40844  611.75518
   1.40000 1209.56704 1230.80097 1238.27562 1237.39503 1229.73313 1196.22482 1182.90467 1175.04655 1169.68378 1164.17410 1156.83237 1146.89526 1131.79811 1121.20169 1108.64312 1092.32963 1078.75983 1066.59656 1055.05488 1043.36975 1026.75269 1008.57120  989.16707  974.27958  961.32915  942.81304  919.27031  898.53529  884.85346  873.15000  858.17007  839.42521  826.36439  810.29211  791.33799  771.97832  754.06892  738.28621  723.29917  711.44527  702.52389  693.65703  684.74506  676.48452  670.03839  666.03925  661.77680  656.28578  652.08696  649.13670  645.65305  641.84644  638.31734  634.98734  628.84434  620.79487  617.49345  617.53557  618.72522
   1.50000 1222.26903 1244.11843 1251.99785 1251.41242 1243.92886 1210.20839 1196.96887 1189.25659 1184.09469 1178.76762 1171.56173 1161.72688 1146.63246 1136.10872 1123.55894 1107.17141 1093.57864 1081.42641 1069.89470 1058.21124 1041.46054 1023.07927 1003.43830  988.40682  975.32740  956.54843  932.61343  911.54340  897.68452  885.84616  870.63592  851.56516  838.30738  821.95284  802.64347  782.90758  764.64822  748.55842  733.28195  721.20617  712.11285  703.06474  693.96662  685.52786  678.93389  674.82645  670.44288  664.79879  660.46200  657.38608  653.75876  649.79525  646.10645  642.61183  636.25329  627.95815  624.47433  624.36729  625.41028
   1.60000 1233.55525 1255.97679 1264.24240 1263.94637 1256.64835 1222.76318 1209.62131 1202.06545 1197.10989 1191.97301 1184.91524 1175.19815 1160.13095 1149.69788 1137.18034 1120.74898 1107.15862 1095.03962 1083.53984 1071.88037 1055.02852 1036.48425 1016.64506 1001.50044  988.32104  969.31698  945.03537  923.67075  909.66356  897.71554  882.30568  862.94482  849.51689  832.91125  813.28116  793.20373  774.62646  758.25822  742.71909  730.44373  721.19742  711.98694  702.72120  694.12176  687.39544  683.19283  678.70147  672.91867  668.45713  665.26778  661.50939  657.40175  653.56569  649.91870  643.35852  634.83236  631.17778  630.93153  631.83734
   1.70000 1243.60449 1266.55801 1275.19126 1275.17734 1268.06897 1234.05878 1221.02751 1213.63544 1208.88913 1203.94732 1197.04674 1187.45944 1172.43958 1162.11161 1149.64569 1133.19602 1119.62936 1107.56213 1096.11273 1084.49609 1067.57114 1048.89591 1028.89232 1013.66143 1000.40739  981.21157  956.62390  935.00062  920.87055  908.83519  893.25303  873.63411  860.05994  843.23118  823.31146  802.92374  784.05750  767.43668  751.65908  739.20428  729.82214  720.46637  711.04982  702.30564  695.46107  691.17521  686.58818  680.67977  676.10554  672.81393  668.93602  664.69591  660.72400  656.93582  650.18672  641.44295  637.62829  637.25194  638.02929
   1.80000 1252.56884 1276.01707 1284.99960 1285.25934 1278.34229 1244.24023 1231.32921 1224.10569 1219.56946 1214.82533 1208.08840 1198.64004 1183.68394 1173.47249 1161.07414 1144.62771 1131.10261 1119.10258 1107.71899 1096.16106 1079.18730 1060.40906 1040.27075 1024.97707 1011.67056  992.31245  967.45490  945.60498  931.37458  919.27168  903.54164  883.69344  869.99448  852.96776  832.78649  812.11676  792.98777  776.13783  760.14372  747.52779  738.02540  728.53988  718.98782  710.11342  703.16346  698.80527  694.13365  688.11163  683.43576  680.05215  676.06529  671.70346  667.60616  663.68711  656.76081  647.81177  643.84684  643.34880  644.00572
   1.90000 1260.57854 1284.48685 1293.80065 1294.32477 1287.59872 1253.43247 1240.64862 1233.59625 1229.26929 1224.72364 1218.15461 1208.85189 1193.97290 1183.88688 1171.56914 1155.14409 1141.67546 1129.75544 1118.45052 1106.96462 1089.96305 1071.10626 1050.85930 1035.52338 1022.18380 1002.68959  977.59447  955.54656  941.23590  929.08304  913.22700  893.17545  879.37095  862.16903  841.75166  820.82563  801.45773  784.40001  768.20942  755.44902  745.84058  736.23950  726.56593  717.57461  710.53105  706.11050  701.36448  695.23988  690.47255  687.00637  682.92035  678.44669  674.23369  670.19329  663.10061  653.95770  649.85160  649.23965  649.78360
   2.00000 1267.74574 1292.08192 1301.70942 1302.48808 1295.95114 1261.74378 1249.09177 1242.21141 1238.09154 1233.74368 1227.34500 1218.19263 1203.40144 1193.44762 1181.22105 1164.83264 1151.43285 1139.60339 1128.38779 1116.98504 1099.97387 1081.05991 1060.72727 1045.36707 1032.01145 1012.40438  987.10068  964.88044  950.50740  938.32024  922.35785  902.12638  888.23369  870.87715  850.24684  829.08793  809.50288  792.25688  775.88809  762.99846  753.29694  743.59331  733.81105  724.71504  717.58870  713.11499  708.30395  702.08695  697.23754  693.69754  689.52138  684.94507  680.62535  676.47244  669.22343  659.89725  655.65842  654.93980  655.37769
   3.00000 1309.42138 1336.68638 1348.61552 1351.37807 1346.45899 1312.48577 1301.12869 1295.80807 1293.48743 1290.90303 1286.11410 1278.46084 1264.77744 1256.23134 1245.15386 1229.55853 1217.17057 1206.50566 1196.45349 1186.17855 1169.65538 1150.89118 1130.49664 1115.49886 1102.55792 1082.65931 1056.35018 1033.36399 1019.01452 1007.04850  990.75881  969.62921  955.51127  937.40777  915.56134  893.00588  872.11890  853.77098  836.35662  822.78725  812.67653  802.47363  792.12802  782.48560  774.97630  770.34868  765.27580  758.55971  753.28340  749.37255  744.67749  739.46437  734.46003  729.56000  721.17834  710.47398  705.27172  703.79912  703.47615
   4.00000 1324.40745 1353.07309 1366.21631 1370.11049 1366.21436 1332.74056 1322.32143 1318.07243 1316.95286 1315.58603 1311.97842 1305.48567 1292.81096 1285.43327 1275.42687 1260.75162 1249.40537 1239.87615 1230.97922 1221.86098 1206.17803 1188.08168 1168.24217 1154.03034 1141.90908 1122.43540 1096.13398 1073.27583 1059.50551 1048.23421 1032.30619 1011.17767  997.46168  979.42252  957.32374  934.37497  913.12961  894.53025  876.87972  863.30039  853.34871  843.23006  832.90997  823.29011  815.90516  811.55412  806.66966  799.95671  794.72236  790.88158  786.13224  780.76063  775.54508  770.36911  761.39582  749.88745  744.18330  742.35551  741.65561
   5.00000 1330.51772 1359.82900 1373.57664 1378.08534 1374.78197 1341.72885 1331.90594 1328.32574 1327.95032 1327.35733 1324.52696 1318.81564 1306.88489 1300.32859 1291.12297 1277.19944 1266.67919 1258.02965 1250.03859 1241.84678 1226.94485 1209.55933 1190.37509 1176.94921 1165.64576 1146.77844 1120.85222 1098.43496 1085.35912 1074.83467 1059.47377 1038.69505 1025.56518 1007.89749  985.95651  963.06350  941.88178  923.40606  905.87804  892.57127  883.00985  873.22845  863.20144  853.86819  846.83660  842.94504  838.45361  831.99337  827.03387  823.48275  818.92387  813.65457  808.49072  803.30054  794.04875  782.06486  776.07579  774.03333  773.16753
   6.00000 1336.11990 1365.47349 1379.35375 1384.23387 1381.34239 1348.96436 1339.65976 1336.60581 1336.78218 1336.77723 1334.53805 1329.36725 1318.12365 1312.11705 1303.53995 1290.32260 1280.50880 1272.47106 1265.08163 1257.51638 1243.27640 1226.64978 1208.18472 1195.44592 1184.85570 1166.69982 1141.50742 1119.80251 1107.33515 1097.20131 1082.34948 1062.06962 1049.36787 1032.05129 1010.33617  987.61341  966.54586  948.17614  930.71763  917.55246  908.22384  898.67268  888.86811  879.75622  872.95330  869.32285  865.06833  858.78909  854.00857  850.63345  846.21149  841.02405  835.89930  830.64865  821.13208  808.61908  801.85771  798.73902  797.51237
   7.00000 1342.05467 1370.96103 1384.58920 1389.66168 1387.05278 1355.60444 1346.78037 1344.15514 1344.74594 1345.20023 1343.41835 1338.60065 1328.01786 1322.34140 1314.26094 1301.72672 1292.52960 1284.87897 1277.83042 1270.63219 1256.94827 1241.12241 1223.42638 1211.27707 1201.29636 1183.92687 1159.76559 1138.99005 1127.02808 1116.95568 1102.53101 1082.84912 1070.40046 1053.37740 1031.90556 1009.41239  988.46228  970.14155  952.67201  939.49229  930.21837  920.76470  911.08215  902.09589  895.37200  891.78610  887.58928  881.38843  876.66272  873.32309  868.95205  863.79117  858.65705  853.26521  843.45672  830.32536  822.30600  817.29543  815.40770
   8.00000 1348.16653 1376.27986 1389.37592 1394.50121 1392.06838 1361.71955 1353.33567 1351.05025 1351.93982 1352.74743 1351.31184 1346.69929 1336.74024 1331.22299 1323.53132 1311.64822 1302.98666 1295.54884 1288.64043 1281.60819 1268.38927 1253.37816 1236.47083 1224.82201 1215.35681 1198.80739 1175.87241 1156.16121 1144.61044 1134.37346 1120.30446 1101.27932 1088.94762 1072.16768 1050.94720 1028.72539 1007.89765  989.58767  972.06210  958.75758  949.40908  939.95632  930.32212  921.39057  914.63518  910.93328  906.66036  900.46113  895.69781  892.28883  887.90335  882.72737  877.54697  871.95448  861.83686  848.03175  838.42300  830.97616  828.11967
   9.00000 1354.32491 1381.41887 1393.79099 1398.86359 1396.52045 1367.36997 1359.38443 1357.35810 1358.44998 1359.52496 1358.34485 1353.82336 1344.44305 1338.95562 1331.56572 1320.29501 1312.09594 1304.73969 1297.82177 1290.80445 1277.97274 1263.76778 1247.64431 1236.41529 1227.38112 1211.65210 1190.05388 1171.47450 1160.24986 1149.70630 1135.93097 1117.58813 1105.27044 1088.68988 1067.72122 1045.79768 1025.09817 1006.77606  989.17725  975.67593  966.16447  956.64630  947.00914  938.08227  931.21777  927.28656  922.84219  916.58963  911.72307  908.16999  903.72231  898.50115  893.24750  887.41301  876.97756  862.47156  851.07080  840.86740  836.74407
