Polar coordinates (r,theta) as a function of time (origin in the center of the hemisphere)

Angular position
   theta1_[deg]   ..........   theta59_[deg]
              0.00000    2.30770    4.61537    6.92308    9.23076   11.53846   13.84615   16.15385   18.46154   20.76922   23.07693   25.38459   27.69235   29.99999   32.30761   34.61535   36.92316   39.23071   41.53852   43.84614   46.15391   48.46158   50.76920   53.07696   55.38465   57.69245   59.99996   62.30765   64.61545   66.92302   69.23081   71.53845   73.84626   76.15380   78.46165   80.76921   83.07696   85.38453   87.69242   90.00000   91.80880   93.61377   95.41182   97.19925   98.97270  100.72877  102.46490  104.17809  105.86579  107.52549  109.15559  110.75410  112.31952  113.85041  115.34617  116.80583  118.22886  119.61477  120.96376

Radius as a function of time for the above positions
  time_[s]       r1_[mm]   ..........      r59_[mm]
   0.00000   25.00000   25.00000   25.00000   25.00000   25.00000   25.00000   25.00000   25.00000   25.00000   25.00000   25.00000   25.00000   25.00000   25.00000   25.00000   25.00000   25.00000   25.00000   25.00000   25.00000   25.00000   25.00000   25.00000   25.00000   25.00000   25.00000   25.00000   25.00000   25.00000   25.00000   25.00000   25.00000   25.00000   25.00000   25.00000   25.00000   25.00000   25.00000   25.00000   25.00000   25.01246   25.04981   25.11194   25.19866   25.30972   25.44479   25.60352   25.78545   25.99010   26.21691   26.46536   26.73483   27.02468   27.33423   27.66289   28.00995   28.37474   28.75654   29.15476
   0.10000   24.99527   24.99528   24.99532   24.99538   24.99546   24.99556   24.99568   24.99582   24.99598   24.99616   24.99636   24.99659   24.99682   24.99706   24.99731   24.99758   24.99785   24.99813   24.99841   24.99869   24.99896   24.99922   24.99948   24.99973   24.99995   25.00000   25.00000   25.00000   25.00000   25.00000   25.00000   25.00000   25.00000   25.00000   25.00000   25.00000   25.00000   25.00000   25.00000   25.00000   25.01246   25.04981   25.11194   25.19866   25.30972   25.44479   25.60352   25.78545   25.99010   26.21691   26.46536   26.73483   27.02468   27.33423   27.66289   28.00995   28.37474   28.75654   29.15476
   0.20000   24.99055   24.99057   24.99064   24.99075   24.99091   24.99111   24.99136   24.99165   24.99197   24.99233   24.99273   24.99318   24.99364   24.99412   24.99462   24.99516   24.99571   24.99626   24.99681   24.99737   24.99791   24.99845   24.99896   24.99945   24.99990   25.00000   25.00000   25.00000   25.00000   25.00000   25.00000   25.00000   25.00000   25.00000   25.00000   25.00000   25.00000   25.00000   25.00000   25.00000   25.01246   25.04981   25.11194   25.19866   25.30972   25.44479   25.60352   25.78545   25.99010   26.21691   26.46536   26.73483   27.02468   27.33423   27.66289   28.00995   28.37474   28.75654   29.15476
   0.30000   24.98582   24.98585   24.98595   24.98613   24.98637   24.98667   24.98704   24.98747   24.98795   24.98849   24.98909   24.98976   24.99046   24.99118   24.99193   24.99274   24.99356   24.99439   24.99522   24.99606   24.99687   24.99767   24.99844   24.99918   24.99986   25.00000   25.00000   25.00000   25.00000   25.00000   25.00000   25.00000   25.00000   25.00000   25.00000   25.00000   25.00000   25.00000   25.00000   25.00000   25.01246   25.04981   25.11194   25.19866   25.30972   25.44479   25.60352   25.78545   25.99010   26.21691   26.46536   26.73483   27.02468   27.33423   27.66289   28.00995   28.37474   28.75654   29.15476
   0.40000   24.98109   24.98113   24.98127   24.98150   24.98182   24.98222   24.98272   24.98329   24.98393   24.98465   24.98545   24.98635   24.98728   24.98824   24.98924   24.99032   24.99141   24.99251   24.99363   24.99475   24.99583   24.99689   24.99792   24.99890   24.99981   25.00000   25.00000   25.00000   25.00000   25.00000   25.00000   25.00000   25.00000   25.00000   25.00000   25.00000   25.00000   25.00000   25.00000   25.00000   25.01246   25.04981   25.11194   25.19866   25.30972   25.44479   25.60352   25.78545   25.99010   26.21691   26.46536   26.73483   27.02468   27.33423   27.66289   28.00995   28.37474   28.75654   29.15476
   0.50000   24.97636   24.97642   24.97659   24.97688   24.97728   24.97778   24.97840   24.97912   24.97991   24.98081   24.98181   24.98294   24.98410   24.98530   24.98655   24.98790   24.98927   24.99064   24.99203   24.99343   24.99479   24.99611   24.99740   24.99863   24.99976   25.00000   25.00000   25.00000   25.00000   25.00000   25.00000   25.00000   25.00000   25.00000   25.00000   25.00000   25.00000   25.00000   25.00000   25.00000   25.01246   25.04981   25.11194   25.19866   25.30972   25.44479   25.60352   25.78545   25.99010   26.21691   26.46536   26.73483   27.02468   27.33423   27.66289   28.00995   28.37474   28.75654   29.15476
   0.60000   24.97164   24.97170   24.97191   24.97225   24.97273   24.97334   24.97408   24.97494   24.97590   24.97698   24.97818   24.97953   24.98092   24.98236   24.98386   24.98548   24.98712   24.98877   24.99044   24.99212   24.99374   24.99534   24.99688   24.99835   24.99971   25.00000   25.00000   25.00000   25.00000   25.00000   25.00000   25.00000   25.00000   25.00000   25.00000   25.00000   25.00000   25.00000   25.00000   25.00000   25.01246   25.04981   25.11194   25.19866   25.30972   25.44479   25.60352   25.78545   25.99010   26.21691   26.46536   26.73483   27.02468   27.33423   27.66289   28.00995   28.37474   28.75654   29.15476
   0.70000   24.96691   24.96698   24.96722   24.96763   24.96819   24.96889   24.96976   24.97076   24.97188   24.97314   24.97454   24.97611   24.97774   24.97942   24.98117   24.98307   24.98498   24.98690   24.98885   24.99080   24.99270   24.99456   24.99636   24.99808   24.99966   25.00000   25.00000   25.00000   25.00000   25.00000   25.00000   25.00000   25.00000   25.00000   25.00000   25.00000   25.00000   25.00000   25.00000   25.00000   25.01246   25.04981   25.11194   25.19866   25.30972   25.44479   25.60352   25.78545   25.99010   26.21691   26.46536   26.73483   27.02468   27.33423   27.66289   28.00995   28.37474   28.75654   29.15476
   0.80000   24.96218   24.96227   24.96254   24.96300   24.96364   24.96445   24.96544   24.96659   24.96786   24.96930   24.97090   24.97270   24.97456   24.97648   24.97848   24.98065   24.98283   24.98503   24.98725   24.98949   24.99166   24.99378   24.99584   24.99780   24.99961   25.00000   25.00000   25.00000   25.00000   25.00000   25.00000   25.00000   25.00000   25.00000   25.00000   25.00000   25.00000   25.00000   25.00000   25.00000   25.01246   25.04981   25.11194   25.19866   25.30972   25.44479   25.60352   25.78545   25.99010   26.21691   26.46536   26.73483   27.02468   27.33423   27.66289   28.00995   28.37474   28.75654   29.15476
   0.90000   24.95745   24.95755   24.95786   24.95838   24.95910   24.96001   24.96113   24.96241   24.96384   24.96546   24.96727   24.96929   24.97138   24.97353   24.97579   24.97823   24.98068   24.98316   24.98566   24.98818   24.99062   24.99301   24.99532   24.99753   24.99957   25.00000   25.00000   25.00000   25.00000   25.00000   25.00000   25.00000   25.00000   25.00000   25.00000   25.00000   25.00000   25.00000   25.00000   25.00000   25.01246   25.04981   25.11194   25.19866   25.30972   25.44479   25.60352   25.78545   25.99010   26.21691   26.46536   26.73483   27.02468   27.33423   27.66289   28.00995   28.37474   28.75654   29.15476
   1.00000   24.95273   24.95283   24.95318   24.95375   24.95456   24.95556   24.95681   24.95823   24.95983   24.96163   24.96363   24.96588   24.96820   24.97059   24.97310   24.97581   24.97854   24.98129   24.98407   24.98686   24.98957   24.99223   24.99480   24.99725   24.99952   25.00000   25.00000   25.00000   25.00000   25.00000   25.00000   25.00000   25.00000   25.00000   25.00000   25.00000   25.00000   25.00000   25.00000   25.00000   25.01246   25.04981   25.11194   25.19866   25.30972   25.44479   25.60352   25.78545   25.99010   26.21691   26.46536   26.73483   27.02468   27.33423   27.66289   28.00995   28.37474   28.75654   29.15476
   1.10000   24.94800   24.94812   24.94849   24.94913   24.95001   24.95112   24.95249   24.95406   24.95581   24.95779   24.95999   24.96246   24.96502   24.96765   24.97041   24.97339   24.97639   24.97941   24.98247   24.98555   24.98853   24.99145   24.99427   24.99698   24.99947   25.00000   25.00000   25.00000   25.00000   25.00000   25.00000   25.00000   25.00000   25.00000   25.00000   25.00000   25.00000   25.00000   25.00000   25.00000   25.01246   25.04981   25.11194   25.19866   25.30972   25.44479   25.60352   25.78545   25.99010   26.21691   26.46536   26.73483   27.02468   27.33423   27.66289   28.00995   28.37474   28.75654   29.15476
   1.20000   24.94327   24.94340   24.94381   24.94450   24.94547   24.94667   24.94817   24.94988   24.95179   24.95395   24.95636   24.95905   24.96184   24.96471   24.96772   24.97097   24.97424   24.97754   24.98088   24.98424   24.98749   24.99067   24.99375   24.99670   24.99942   25.00000   25.00000   25.00000   25.00000   25.00000   25.00000   25.00000   25.00000   25.00000   25.00000   25.00000   25.00000   25.00000   25.00000   25.00000   25.01246   25.04981   25.11194   25.19866   25.30972   25.44479   25.60352   25.78545   25.99010   26.21691   26.46536   26.73483   27.02468   27.33423   27.66289   28.00995   28.37474   28.75654   29.15476
   1.30000   24.93854   24.93868   24.93913   24.93988   24.94092   24.94223   24.94385   24.94570   24.94777   24.95011   24.95272   24.95564   24.95866   24.96177   24.96503   24.96855   24.97210   24.97567   24.97929   24.98292   24.98645   24.98990   24.99323   24.99643   24.99937   25.00000   25.00000   25.00000   25.00000   25.00000   25.00000   25.00000   25.00000   25.00000   25.00000   25.00000   25.00000   25.00000   25.00000   25.00000   25.01246   25.04981   25.11194   25.19866   25.30972   25.44479   25.60352   25.78545   25.99010   26.21691   26.46536   26.73483   27.02468   27.33423   27.66289   28.00995   28.37474   28.75654   29.15476
   1.40000   24.93382   24.93397   24.93445   24.93525   24.93638   24.93779   24.93953   24.94153   24.94376   24.94628   24.94908   24.95223   24.95548   24.95883   24.96234   24.96613   24.96995   24.97380   24.97769   24.98161   24.98540   24.98912   24.99271   24.99615   24.99932   25.00000   25.00000   25.00000   25.00000   25.00000   25.00000   25.00000   25.00000   25.00000   25.00000   25.00000   25.00000   25.00000   25.00000   25.00000   25.01246   25.04981   25.11194   25.19866   25.30972   25.44479   25.60352   25.78545   25.99010   26.21691   26.46536   26.73483   27.02468   27.33423   27.66289   28.00995   28.37474   28.75654   29.15476
   1.50000   24.92909   24.92925   24.92976   24.93063   24.93183   24.93334   24.93521   24.93735   24.93974   24.94244   24.94544   24.94881   24.95230   24.95589   24.95965   24.96371   24.96780   24.97193   24.97610   24.98029   24.98436   24.98834   24.99219   24.99588   24.99928   25.00000   25.00000   25.00000   25.00000   25.00000   25.00000   25.00000   25.00000   25.00000   25.00000   25.00000   25.00000   25.00000   25.00000   25.00000   25.01246   25.04981   25.11194   25.19866   25.30972   25.44479   25.60352   25.78545   25.99010   26.21691   26.46536   26.73483   27.02468   27.33423   27.66289   28.00995   28.37474   28.75654   29.15476
   1.60000   24.92436   24.92454   24.92508   24.92601   24.92729   24.92890   24.93089   24.93317   24.93572   24.93860   24.94181   24.94540   24.94912   24.95295   24.95695   24.96129   24.96566   24.97006   24.97451   24.97898   24.98332   24.98757   24.99167   24.99561   24.99923   25.00000   25.00000   25.00000   25.00000   25.00000   25.00000   25.00000   25.00000   25.00000   25.00000   25.00000   25.00000   25.00000   25.00000   25.00000   25.01246   25.04981   25.11194   25.19866   25.30972   25.44479   25.60352   25.78545   25.99010   26.21691   26.46536   26.73483   27.02468   27.33423   27.66289   28.00995   28.37474   28.75654   29.15476
   1.70000   24.91963   24.91982   24.92040   24.92138   24.92274   24.92445   24.92657   24.92900   24.93170   24.93476   24.93817   24.94199   24.94594   24.95001   24.95426   24.95887   24.96351   24.96819   24.97291   24.97767   24.98228   24.98679   24.99115   24.99533   24.99918   25.00000   25.00000   25.00000   25.00000   25.00000   25.00000   25.00000   25.00000   25.00000   25.00000   25.00000   25.00000   25.00000   25.00000   25.00000   25.01246   25.04981   25.11194   25.19866   25.30972   25.44479   25.60352   25.78545   25.99010   26.21691   26.46536   26.73483   27.02468   27.33423   27.66289   28.00995   28.37474   28.75654   29.15476
   1.80000   24.91491   24.91510   24.91572   24.91676   24.91820   24.92001   24.92225   24.92482   24.92769   24.93093   24.93453   24.93858   24.94276   24.94707   24.95157   24.95645   24.96136   24.96631   24.97132   24.97635   24.98123   24.98601   24.99063   24.99506   24.99913   25.00000   25.00000   25.00000   25.00000   25.00000   25.00000   25.00000   25.00000   25.00000   25.00000   25.00000   25.00000   25.00000   25.00000   25.00000   25.01246   25.04981   25.11194   25.19866   25.30972   25.44479   25.60352   25.78545   25.99010   26.21691   26.46536   26.73483   27.02468   27.33423   27.66289   28.00995   28.37474   28.75654   29.15476
   1.90000   24.91018   24.91039   24.91103   24.91213   24.91366   24.91557   24.91793   24.92064   24.92367   24.92709   24.93090   24.93517   24.93958   24.94413   24.94888   24.95404   24.95922   24.96444   24.96973   24.97504   24.98019   24.98523   24.99011   24.99478   24.99908   25.00000   25.00000   25.00000   25.00000   25.00000   25.00000   25.00000   25.00000   25.00000   25.00000   25.00000   25.00000   25.00000   25.00000   25.00000   25.01246   25.04981   25.11194   25.19866   25.30972   25.44479   25.60352   25.78545   25.99010   26.21691   26.46536   26.73483   27.02468   27.33423   27.66289   28.00995   28.37474   28.75654   29.15476
   2.00000   24.90545   24.90567   24.90635   24.90751   24.90911   24.91112   24.91361   24.91647   24.91965   24.92325   24.92726   24.93175   24.93640   24.94119   24.94619   24.95162   24.95707   24.96257   24.96813   24.97373   24.97915   24.98446   24.98959   24.99451   24.99903   25.00000   25.00000   25.00000   25.00000   25.00000   25.00000   25.00000   25.00000   25.00000   25.00000   25.00000   25.00000   25.00000   25.00000   25.00000   25.01246   25.04981   25.11194   25.19866   25.30972   25.44479   25.60352   25.78545   25.99010   26.21691   26.46536   26.73483   27.02468   27.33423   27.66289   28.00995   28.37474   28.75654   29.15476
   3.00000   24.85818   24.85850   24.85953   24.86126   24.86367   24.86668   24.87042   24.87470   24.87948   24.88488   24.89089   24.89763   24.90460   24.91178   24.91929   24.92742   24.93561   24.94386   24.95220   24.96059   24.96872   24.97668   24.98439   24.99176   24.99855   25.00000   25.00000   25.00000   25.00000   25.00000   25.00000   25.00000   25.00000   25.00000   25.00000   25.00000   25.00000   25.00000   25.00000   25.00000   25.01246   25.04981   25.11194   25.19866   25.30972   25.44479   25.60352   25.78545   25.99010   26.21691   26.46536   26.73483   27.02468   27.33423   27.66289   28.00995   28.37474   28.75654   29.15476
   4.00000   24.81090   24.81134   24.81270   24.81501   24.81822   24.82224   24.82722   24.83293   24.83931   24.84650   24.85452   24.86351   24.87280   24.88238   24.89239   24.90323   24.91414   24.92514   24.93627   24.94745   24.95830   24.96891   24.97918   24.98901   24.99807   25.00000   25.00000   25.00000   25.00000   25.00000   25.00000   25.00000   25.00000   25.00000   25.00000   25.00000   25.00000   25.00000   25.00000   25.00000   25.01246   25.04981   25.11194   25.19866   25.30972   25.44479   25.60352   25.78545   25.99010   26.21691   26.46536   26.73483   27.02468   27.33423   27.66289   28.00995   28.37474   28.75654   29.15476
   6.00000   24.71636   24.71701   24.71906   24.72252   24.72733   24.73337   24.74083   24.74940   24.75896   24.76976   24.78178   24.79526   24.80920   24.82357   24.83858   24.85485   24.87121   24.88771   24.90440   24.92118   24.93745   24.95337   24.96877   24.98352   24.99710   25.00000   25.00000   25.00000   25.00000   25.00000   25.00000   25.00000   25.00000   25.00000   25.00000   25.00000   25.00000   25.00000   25.00000   25.00000   25.01246   25.04981   25.11194   25.19866   25.30972   25.44479   25.60352   25.78545   25.99010   26.21691   26.46536   26.73483   27.02468   27.33423   27.66289   28.00995   28.37474   28.75654   29.15476
   7.00000   24.66908   24.66984   24.67223   24.67627   24.68189   24.68893   24.69764   24.70764   24.71879   24.73138   24.74541   24.76113   24.77740   24.79416   24.81168   24.83066   24.84975   24.86900   24.88847   24.90804   24.92702   24.94560   24.96357   24.98077   24.99662   25.00000   25.00000   25.00000   25.00000   25.00000   25.00000   25.00000   25.00000   25.00000   25.00000   25.00000   25.00000   25.00000   25.00000   25.00000   25.01246   25.04981   25.11194   25.19866   25.30972   25.44479   25.60352   25.78545   25.99010   26.21691   26.46536   26.73483   27.02468   27.33423   27.66289   28.00995   28.37474   28.75654   29.15476
   8.00000   24.62181   24.62268   24.62541   24.63003   24.63645   24.64449   24.65444   24.66587   24.67861   24.69301   24.70904   24.72701   24.74560   24.76475   24.78477   24.80646   24.82829   24.85029   24.87254   24.89490   24.91660   24.93783   24.95836   24.97803   24.99614   25.00000   25.00000   25.00000   25.00000   25.00000   25.00000   25.00000   25.00000   25.00000   25.00000   25.00000   25.00000   25.00000   25.00000   25.00000   25.01246   25.04981   25.11194   25.19866   25.30972   25.44479   25.60352   25.78545   25.99010   26.21691   26.46536   26.73483   27.02468   27.33423   27.66289   28.00995   28.37474   28.75654   29.15476
   9.00000   24.57453   24.57551   24.57858   24.58378   24.59100   24.60005   24.61125   24.62410   24.63844   24.65463   24.67267   24.69289   24.71380   24.73535   24.75787   24.78227   24.80682   24.83157   24.85660   24.88177   24.90617   24.93005   24.95316   24.97528   24.99566   25.00000   25.00000   25.00000   25.00000   25.00000   25.00000   25.00000   25.00000   25.00000   25.00000   25.00000   25.00000   25.00000   25.00000   25.00000   25.01246   25.04981   25.11194   25.19866   25.30972   25.44479   25.60352   25.78545   25.99010   26.21691   26.46536   26.73483   27.02468   27.33423   27.66289   28.00995   28.37474   28.75654   29.15476
  10.00000   24.52726   24.52834   24.53176   24.53753   24.54556   24.55561   24.56806   24.58234   24.59826   24.61626   24.63630   24.65876   24.68200   24.70594   24.73097   24.75808   24.78536   24.81286   24.84067   24.86863   24.89574   24.92228   24.94795   24.97253   24.99517   25.00000   25.00000   25.00000   25.00000   25.00000   25.00000   25.00000   25.00000   25.00000   25.00000   25.00000   25.00000   25.00000   25.00000   25.00000   25.01246   25.04981   25.11194   25.19866   25.30972   25.44479   25.60352   25.78545   25.99010   26.21691   26.46536   26.73483   27.02468   27.33423   27.66289   28.00995   28.37474   28.75654   29.15476
